"E (eV)" pdos(E)
-10.0 1.56
-9.999 1.56
-9.998 1.57
-9.997 1.58
-9.996 1.59
-9.995 1.6
-9.994 1.61
-9.993 1.61
-9.992 1.62
-9.991 1.63
-9.99 1.63
-9.989 1.64
-9.988 1.65
-9.987 1.65
-9.986 1.67
-9.985 1.68
-9.984 1.68
-9.983 1.69
-9.982 1.7
-9.981 1.7
-9.98 1.71
-9.979 1.72
-9.978 1.72
-9.977 1.74
-9.976 1.75
-9.975 1.75
-9.974 1.76
-9.973 1.77
-9.972 1.77
-9.971 1.78
-9.97 1.79
-9.969 1.79
-9.968 1.81
-9.967 1.82
-9.966 1.83
-9.965 1.83
-9.964 1.84
-9.963 1.85
-9.962 1.85
-9.961 1.86
-9.96 1.87
-9.959 1.88
-9.958 1.89
-9.957 1.9
-9.956 1.9
-9.955 1.91
-9.954 1.92
-9.953 1.92
-9.952 1.93
-9.951 1.95
-9.95 1.95
-9.949 1.96
-9.948 1.97
-9.947 1.97
-9.946 1.98
-9.945 1.98
-9.944 2.0
-9.943 2.01
-9.942 2.01
-9.941 2.02
-9.94 2.03
-9.939 2.03
-9.938 2.04
-9.937 2.06
-9.936 2.06
-9.935 2.07
-9.934 2.08
-9.933 2.08
-9.932 2.09
-9.931 2.09
-9.93 2.1
-9.929 2.11
-9.928 2.12
-9.927 2.13
-9.926 2.14
-9.925 2.14
-9.924 2.15
-9.923 2.15
-9.922 2.16
-9.921 2.18
-9.92 2.18
-9.919 2.19
-9.918 2.19
-9.917 2.2
-9.916 2.21
-9.915 2.21
-9.914 2.22
-9.913 2.23
-9.912 2.24
-9.911 2.25
-9.91 2.25
-9.909 2.26
-9.908 2.26
-9.907 2.27
-9.906 2.28
-9.905 2.29
-9.904 2.29
-9.903 2.3
-9.902 2.31
-9.901 2.31
-9.9 2.32
-9.899 2.32
-9.898 2.34
-9.897 2.34
-9.896 2.35
-9.895 2.35
-9.894 2.36
-9.893 2.36
-9.892 2.37
-9.891 2.37
-9.89 2.39
-9.889 2.39
-9.888 2.4
-9.887 2.4
-9.886 2.41
-9.885 2.41
-9.884 2.42
-9.883 2.42
-9.882 2.44
-9.881 2.44
-9.88 2.45
-9.879 2.45
-9.878 2.46
-9.877 2.46
-9.876 2.47
-9.875 2.47
-9.874 2.48
-9.873 2.49
-9.872 2.49
-9.871 2.5
-9.87 2.5
-9.869 2.51
-9.868 2.51
-9.867 2.52
-9.866 2.52
-9.865 2.52
-9.864 2.53
-9.863 2.54
-9.862 2.55
-9.861 2.55
-9.86 2.55
-9.859 2.56
-9.858 2.56
-9.857 2.57
-9.856 2.57
-9.855 2.57
-9.854 2.59
-9.853 2.59
-9.852 2.59
-9.851 2.6
-9.85 2.6
-9.849 2.6
-9.848 2.61
-9.847 2.61
-9.846 2.61
-9.845 2.62
-9.844 2.62
-9.843 2.63
-9.842 2.63
-9.841 2.64
-9.84 2.64
-9.839 2.64
-9.838 2.65
-9.837 2.65
-9.836 2.65
-9.835 2.65
-9.834 2.66
-9.833 2.66
-9.832 2.66
-9.831 2.67
-9.83 2.68
-9.829 2.68
-9.828 2.68
-9.827 2.68
-9.826 2.69
-9.825 2.69
-9.824 2.69
-9.823 2.69
-9.822 2.69
-9.821 2.69
-9.82 2.7
-9.819 2.7
-9.818 2.7
-9.817 2.71
-9.816 2.71
-9.815 2.71
-9.814 2.72
-9.813 2.72
-9.812 2.72
-9.811 2.72
-9.81 2.72
-9.809 2.72
-9.808 2.72
-9.807 2.72
-9.806 2.73
-9.805 2.73
-9.804 2.73
-9.803 2.73
-9.802 2.73
-9.801 2.73
-9.8 2.73
-9.799 2.73
-9.798 2.74
-9.797 2.74
-9.796 2.74
-9.795 2.74
-9.794 2.74
-9.793 2.74
-9.792 2.74
-9.791 2.74
-9.79 2.74
-9.789 2.74
-9.788 2.74
-9.787 2.74
-9.786 2.74
-9.785 2.74
-9.784 2.74
-9.783 2.74
-9.782 2.74
-9.781 2.74
-9.78 2.74
-9.779 2.74
-9.778 2.74
-9.777 2.74
-9.776 2.74
-9.775 2.74
-9.774 2.74
-9.773 2.73
-9.772 2.73
-9.771 2.73
-9.77 2.73
-9.769 2.73
-9.768 2.73
-9.767 2.73
-9.766 2.73
-9.765 2.73
-9.764 2.72
-9.763 2.72
-9.762 2.72
-9.761 2.72
-9.76 2.72
-9.759 2.72
-9.758 2.71
-9.757 2.71
-9.756 2.71
-9.755 2.71
-9.754 2.71
-9.753 2.7
-9.752 2.7
-9.751 2.7
-9.75 2.7
-9.749 2.7
-9.748 2.69
-9.747 2.69
-9.746 2.69
-9.745 2.69
-9.744 2.67
-9.743 2.67
-9.742 2.67
-9.741 2.66
-9.74 2.66
-9.739 2.66
-9.738 2.66
-9.737 2.65
-9.736 2.65
-9.735 2.65
-9.734 2.64
-9.733 2.64
-9.732 2.64
-9.731 2.63
-9.73 2.63
-9.729 2.63
-9.728 2.62
-9.727 2.62
-9.726 2.62
-9.725 2.61
-9.724 2.61
-9.723 2.61
-9.722 2.59
-9.721 2.59
-9.72 2.59
-9.719 2.58
-9.718 2.58
-9.717 2.57
-9.716 2.57
-9.715 2.57
-9.714 2.56
-9.713 2.56
-9.712 2.55
-9.711 2.55
-9.71 2.55
-9.709 2.54
-9.708 2.53
-9.707 2.52
-9.706 2.52
-9.705 2.51
-9.704 2.51
-9.703 2.5
-9.702 2.5
-9.701 2.5
-9.7 2.49
-9.699 2.49
-9.698 2.48
-9.697 2.48
-9.696 2.46
-9.695 2.46
-9.694 2.45
-9.693 2.45
-9.692 2.44
-9.691 2.44
-9.69 2.43
-9.689 2.43
-9.688 2.42
-9.687 2.42
-9.686 2.4
-9.685 2.4
-9.684 2.39
-9.683 2.39
-9.682 2.38
-9.681 2.38
-9.68 2.37
-9.679 2.36
-9.678 2.36
-9.677 2.35
-9.676 2.34
-9.675 2.33
-9.674 2.33
-9.673 2.32
-9.672 2.32
-9.671 2.31
-9.67 2.3
-9.669 2.3
-9.668 2.28
-9.667 2.28
-9.666 2.27
-9.665 2.26
-9.664 2.26
-9.663 2.25
-9.662 2.25
-9.661 2.24
-9.66 2.23
-9.659 2.22
-9.658 2.21
-9.657 2.21
-9.656 2.2
-9.655 2.19
-9.654 2.19
-9.653 2.18
-9.652 2.17
-9.651 2.16
-9.65 2.15
-9.649 2.15
-9.648 2.14
-9.647 2.13
-9.646 2.13
-9.645 2.12
-9.644 2.11
-9.643 2.1
-9.642 2.09
-9.641 2.09
-9.64 2.08
-9.639 2.07
-9.638 2.07
-9.637 2.05
-9.636 2.04
-9.635 2.04
-9.634 2.03
-9.633 2.02
-9.632 2.02
-9.631 2.01
-9.63 2.01
-9.629 1.99
-9.628 1.98
-9.627 1.98
-9.626 1.97
-9.625 1.96
-9.624 1.96
-9.623 1.95
-9.622 1.93
-9.621 1.93
-9.62 1.92
-9.619 1.91
-9.618 1.91
-9.617 1.9
-9.616 1.89
-9.615 1.87
-9.614 1.87
-9.613 1.86
-9.612 1.85
-9.611 1.85
-9.61 1.84
-9.609 1.83
-9.608 1.82
-9.607 1.81
-9.606 1.8
-9.605 1.8
-9.604 1.79
-9.603 1.78
-9.602 1.77
-9.601 1.76
-9.6 1.75
-9.599 1.75
-9.598 1.74
-9.597 1.73
-9.596 1.73
-9.595 1.71
-9.594 1.7
-9.593 1.7
-9.592 1.69
-9.591 1.68
-9.59 1.68
-9.589 1.67
-9.588 1.65
-9.587 1.64
-9.586 1.64
-9.585 1.63
-9.584 1.62
-9.583 1.62
-9.582 1.61
-9.581 1.59
-9.58 1.59
-9.579 1.58
-9.578 1.57
-9.577 1.57
-9.576 1.56
-9.575 1.55
-9.574 1.54
-9.573 1.53
-9.572 1.52
-9.571 1.52
-9.57 1.51
-9.569 1.5
-9.568 1.5
-9.567 1.48
-9.566 1.47
-9.565 1.47
-9.564 1.46
-9.563 1.45
-9.562 1.45
-9.561 1.44
-9.56 1.43
-9.559 1.42
-9.558 1.41
-9.557 1.4
-9.556 1.4
-9.555 1.39
-9.554 1.38
-9.553 1.38
-9.552 1.37
-9.551 1.36
-9.55 1.35
-9.549 1.34
-9.548 1.34
-9.547 1.33
-9.546 1.32
-9.545 1.31
-9.544 1.3
-9.543 1.3
-9.542 1.29
-9.541 1.28
-9.54 1.27
-9.539 1.27
-9.538 1.26
-9.537 1.25
-9.536 1.25
-9.535 1.24
-9.534 1.23
-9.533 1.22
-9.532 1.22
-9.531 1.21
-9.53 1.2
-9.529 1.19
-9.528 1.19
-9.527 1.18
-9.526 1.17
-9.525 1.17
-9.524 1.16
-9.523 1.15
-9.522 1.15
-9.521 1.14
-9.52 1.13
-9.519 1.13
-9.518 1.12
-9.517 1.11
-9.516 1.11
-9.515 1.1
-9.514 1.09
-9.513 1.08
-9.512 1.08
-9.511 1.07
-9.51 1.06
-9.509 1.06
-9.508 1.05
-9.507 1.05
-9.506 1.04
-9.505 1.03
-9.504 1.03
-9.503 1.02
-9.502 1.01
-9.501 1.01
-9.5 1.0
-9.499 0.994
-9.498 0.988
-9.497 0.982
-9.496 0.976
-9.495 0.97
-9.494 0.963
-9.493 0.958
-9.492 0.952
-9.491 0.946
-9.49 0.939
-9.489 0.934
-9.488 0.929
-9.487 0.923
-9.486 0.917
-9.485 0.911
-9.484 0.906
-9.483 0.9
-9.482 0.895
-9.481 0.89
-9.48 0.884
-9.479 0.878
-9.478 0.873
-9.477 0.867
-9.476 0.862
-9.475 0.857
-9.474 0.852
-9.473 0.847
-9.472 0.841
-9.471 0.836
-9.47 0.832
-9.469 0.826
-9.468 0.821
-9.467 0.817
-9.466 0.812
-9.465 0.806
-9.464 0.803
-9.463 0.797
-9.462 0.793
-9.461 0.788
-9.46 0.784
-9.459 0.78
-9.458 0.774
-9.457 0.77
-9.456 0.767
-9.455 0.761
-9.454 0.757
-9.453 0.753
-9.452 0.749
-9.451 0.744
-9.45 0.74
-9.449 0.736
-9.448 0.732
-9.447 0.728
-9.446 0.725
-9.445 0.721
-9.444 0.716
-9.443 0.713
-9.442 0.709
-9.441 0.705
-9.44 0.702
-9.439 0.698
-9.438 0.694
-9.437 0.692
-9.436 0.687
-9.435 0.683
-9.434 0.68
-9.433 0.677
-9.432 0.673
-9.431 0.67
-9.43 0.667
-9.429 0.664
-9.428 0.661
-9.427 0.658
-9.426 0.655
-9.425 0.652
-9.424 0.649
-9.423 0.646
-9.422 0.642
-9.421 0.641
-9.42 0.638
-9.419 0.635
-9.418 0.632
-9.417 0.629
-9.416 0.627
-9.415 0.624
-9.414 0.622
-9.413 0.62
-9.412 0.618
-9.411 0.615
-9.41 0.613
-9.409 0.61
-9.408 0.609
-9.407 0.606
-9.406 0.604
-9.405 0.602
-9.404 0.6
-9.403 0.598
-9.402 0.596
-9.401 0.595
-9.4 0.593
-9.399 0.591
-9.398 0.589
-9.397 0.588
-9.396 0.586
-9.395 0.585
-9.394 0.584
-9.393 0.582
-9.392 0.581
-9.391 0.579
-9.39 0.578
-9.389 0.577
-9.388 0.576
-9.387 0.574
-9.386 0.573
-9.385 0.572
-9.384 0.571
-9.383 0.571
-9.382 0.569
-9.381 0.569
-9.38 0.568
-9.379 0.567
-9.378 0.566
-9.377 0.566
-9.376 0.565
-9.375 0.564
-9.374 0.565
-9.373 0.564
-9.372 0.563
-9.371 0.563
-9.37 0.562
-9.369 0.563
-9.368 0.563
-9.367 0.562
-9.366 0.563
-9.365 0.563
-9.364 0.562
-9.363 0.563
-9.362 0.562
-9.361 0.563
-9.36 0.563
-9.359 0.563
-9.358 0.563
-9.357 0.564
-9.356 0.563
-9.355 0.565
-9.354 0.565
-9.353 0.565
-9.352 0.566
-9.351 0.567
-9.35 0.568
-9.349 0.568
-9.348 0.569
-9.347 0.57
-9.346 0.57
-9.345 0.572
-9.344 0.573
-9.343 0.573
-9.342 0.575
-9.341 0.576
-9.34 0.578
-9.339 0.578
-9.338 0.58
-9.337 0.581
-9.336 0.583
-9.335 0.583
-9.334 0.585
-9.333 0.587
-9.332 0.588
-9.331 0.59
-9.33 0.592
-9.329 0.593
-9.328 0.595
-9.327 0.597
-9.326 0.598
-9.325 0.6
-9.324 0.603
-9.323 0.604
-9.322 0.607
-9.321 0.608
-9.32 0.61
-9.319 0.613
-9.318 0.615
-9.317 0.617
-9.316 0.62
-9.315 0.622
-9.314 0.625
-9.313 0.628
-9.312 0.629
-9.311 0.632
-9.31 0.635
-9.309 0.638
-9.308 0.64
-9.307 0.642
-9.306 0.645
-9.305 0.648
-9.304 0.651
-9.303 0.654
-9.302 0.658
-9.301 0.661
-9.3 0.663
-9.299 0.666
-9.298 0.669
-9.297 0.673
-9.296 0.676
-9.295 0.679
-9.294 0.683
-9.293 0.687
-9.292 0.689
-9.291 0.692
-9.29 0.697
-9.289 0.7
-9.288 0.703
-9.287 0.708
-9.286 0.711
-9.285 0.716
-9.284 0.719
-9.283 0.721
-9.282 0.726
-9.281 0.73
-9.28 0.734
-9.279 0.738
-9.278 0.742
-9.277 0.746
-9.276 0.751
-9.275 0.754
-9.274 0.759
-9.273 0.764
-9.272 0.768
-9.271 0.772
-9.27 0.775
-9.269 0.78
-9.268 0.785
-9.267 0.789
-9.266 0.794
-9.265 0.799
-9.264 0.803
-9.263 0.808
-9.262 0.813
-9.261 0.817
-9.26 0.822
-9.259 0.827
-9.258 0.832
-9.257 0.836
-9.256 0.842
-9.255 0.847
-9.254 0.852
-9.253 0.857
-9.252 0.863
-9.251 0.867
-9.25 0.872
-9.249 0.878
-9.248 0.883
-9.247 0.888
-9.246 0.894
-9.245 0.899
-9.244 0.905
-9.243 0.91
-9.242 0.915
-9.241 0.92
-9.24 0.926
-9.239 0.932
-9.238 0.937
-9.237 0.943
-9.236 0.949
-9.235 0.954
-9.234 0.96
-9.233 0.966
-9.232 0.972
-9.231 0.978
-9.23 0.984
-9.229 0.99
-9.228 0.996
-9.227 1.0
-9.226 1.01
-9.225 1.01
-9.224 1.02
-9.223 1.03
-9.222 1.03
-9.221 1.04
-9.22 1.05
-9.219 1.05
-9.218 1.06
-9.217 1.06
-9.216 1.07
-9.215 1.08
-9.214 1.08
-9.213 1.09
-9.212 1.09
-9.211 1.1
-9.21 1.11
-9.209 1.11
-9.208 1.12
-9.207 1.13
-9.206 1.14
-9.205 1.14
-9.204 1.15
-9.203 1.15
-9.202 1.16
-9.201 1.17
-9.2 1.17
-9.199 1.18
-9.198 1.18
-9.197 1.19
-9.196 1.2
-9.195 1.21
-9.194 1.22
-9.193 1.23
-9.192 1.23
-9.191 1.24
-9.19 1.25
-9.189 1.25
-9.188 1.26
-9.187 1.27
-9.186 1.27
-9.185 1.28
-9.184 1.29
-9.183 1.29
-9.182 1.3
-9.181 1.31
-9.18 1.31
-9.179 1.32
-9.178 1.33
-9.177 1.34
-9.176 1.35
-9.175 1.36
-9.174 1.36
-9.173 1.37
-9.172 1.38
-9.171 1.38
-9.17 1.39
-9.169 1.4
-9.168 1.4
-9.167 1.41
-9.166 1.42
-9.165 1.42
-9.164 1.43
-9.163 1.44
-9.162 1.44
-9.161 1.46
-9.16 1.47
-9.159 1.47
-9.158 1.48
-9.157 1.49
-9.156 1.5
-9.155 1.5
-9.154 1.51
-9.153 1.52
-9.152 1.52
-9.151 1.53
-9.15 1.54
-9.149 1.54
-9.148 1.56
-9.147 1.57
-9.146 1.57
-9.145 1.58
-9.144 1.59
-9.143 1.59
-9.142 1.6
-9.141 1.61
-9.14 1.62
-9.139 1.62
-9.138 1.63
-9.137 1.64
-9.136 1.64
-9.135 1.66
-9.134 1.67
-9.133 1.67
-9.132 1.68
-9.131 1.69
-9.13 1.69
-9.129 1.7
-9.128 1.71
-9.127 1.71
-9.126 1.72
-9.125 1.73
-9.124 1.74
-9.123 1.75
-9.122 1.76
-9.121 1.76
-9.12 1.77
-9.119 1.78
-9.118 1.78
-9.117 1.79
-9.116 1.8
-9.115 1.8
-9.114 1.81
-9.113 1.82
-9.112 1.83
-9.111 1.84
-9.11 1.85
-9.109 1.85
-9.108 1.86
-9.107 1.87
-9.106 1.87
-9.105 1.88
-9.104 1.89
-9.103 1.89
-9.102 1.91
-9.101 1.92
-9.1 1.92
-9.099 1.93
-9.098 1.94
-9.097 1.94
-9.096 1.95
-9.095 1.95
-9.094 1.96
-9.093 1.97
-9.092 1.98
-9.091 1.99
-9.09 2.0
-9.089 2.0
-9.088 2.01
-9.087 2.01
-9.086 2.02
-9.085 2.03
-9.084 2.03
-9.083 2.04
-9.082 2.04
-9.081 2.06
-9.08 2.07
-9.079 2.07
-9.078 2.08
-9.077 2.08
-9.076 2.09
-9.075 2.1
-9.074 2.1
-9.073 2.11
-9.072 2.11
-9.071 2.13
-9.07 2.13
-9.069 2.14
-9.068 2.15
-9.067 2.15
-9.066 2.16
-9.065 2.16
-9.064 2.17
-9.063 2.17
-9.062 2.18
-9.061 2.18
-9.06 2.2
-9.059 2.21
-9.058 2.21
-9.057 2.22
-9.056 2.22
-9.055 2.23
-9.054 2.23
-9.053 2.24
-9.052 2.24
-9.051 2.25
-9.05 2.25
-9.049 2.27
-9.048 2.27
-9.047 2.28
-9.046 2.28
-9.045 2.29
-9.044 2.29
-9.043 2.3
-9.042 2.3
-9.041 2.31
-9.04 2.31
-9.039 2.31
-9.038 2.33
-9.037 2.33
-9.036 2.34
-9.035 2.34
-9.034 2.35
-9.033 2.35
-9.032 2.36
-9.031 2.36
-9.03 2.36
-9.029 2.37
-9.028 2.37
-9.027 2.38
-9.026 2.39
-9.025 2.39
-9.024 2.4
-9.023 2.4
-9.022 2.41
-9.021 2.41
-9.02 2.41
-9.019 2.42
-9.018 2.42
-9.017 2.42
-9.016 2.43
-9.015 2.43
-9.014 2.45
-9.013 2.45
-9.012 2.45
-9.011 2.46
-9.01 2.46
-9.009 2.46
-9.008 2.46
-9.007 2.47
-9.006 2.47
-9.005 2.47
-9.004 2.48
-9.003 2.48
-9.002 2.48
-9.001 2.49
-9.0 2.5
-8.999 2.5
-8.998 2.5
-8.997 2.51
-8.996 2.51
-8.995 2.51
-8.994 2.51
-8.993 2.52
-8.992 2.52
-8.991 2.52
-8.99 2.52
-8.989 2.52
-8.988 2.53
-8.987 2.53
-8.986 2.54
-8.985 2.54
-8.984 2.55
-8.983 2.55
-8.982 2.55
-8.981 2.55
-8.98 2.55
-8.979 2.55
-8.978 2.56
-8.977 2.56
-8.976 2.56
-8.975 2.56
-8.974 2.56
-8.973 2.56
-8.972 2.56
-8.971 2.56
-8.97 2.57
-8.969 2.58
-8.968 2.58
-8.967 2.58
-8.966 2.58
-8.965 2.58
-8.964 2.58
-8.963 2.58
-8.962 2.58
-8.961 2.58
-8.96 2.58
-8.959 2.58
-8.958 2.58
-8.957 2.59
-8.956 2.59
-8.955 2.59
-8.954 2.59
-8.953 2.59
-8.952 2.59
-8.951 2.59
-8.95 2.59
-8.949 2.59
-8.948 2.59
-8.947 2.59
-8.946 2.59
-8.945 2.59
-8.944 2.6
-8.943 2.59
-8.942 2.59
-8.941 2.59
-8.94 2.59
-8.939 2.59
-8.938 2.59
-8.937 2.59
-8.936 2.59
-8.935 2.59
-8.934 2.59
-8.933 2.59
-8.932 2.59
-8.931 2.59
-8.93 2.58
-8.929 2.58
-8.928 2.58
-8.927 2.58
-8.926 2.58
-8.925 2.58
-8.924 2.58
-8.923 2.57
-8.922 2.57
-8.921 2.57
-8.92 2.57
-8.919 2.57
-8.918 2.57
-8.917 2.56
-8.916 2.56
-8.915 2.56
-8.914 2.56
-8.913 2.56
-8.912 2.55
-8.911 2.55
-8.91 2.55
-8.909 2.55
-8.908 2.55
-8.907 2.54
-8.906 2.54
-8.905 2.54
-8.904 2.54
-8.903 2.53
-8.902 2.53
-8.901 2.53
-8.9 2.52
-8.899 2.52
-8.898 2.52
-8.897 2.52
-8.896 2.51
-8.895 2.51
-8.894 2.51
-8.893 2.5
-8.892 2.5
-8.891 2.5
-8.89 2.49
-8.889 2.49
-8.888 2.49
-8.887 2.48
-8.886 2.48
-8.885 2.48
-8.884 2.47
-8.883 2.47
-8.882 2.47
-8.881 2.46
-8.88 2.46
-8.879 2.46
-8.878 2.45
-8.877 2.45
-8.876 2.44
-8.875 2.44
-8.874 2.44
-8.873 2.43
-8.872 2.43
-8.871 2.42
-8.87 2.42
-8.869 2.42
-8.868 2.41
-8.867 2.41
-8.866 2.4
-8.865 2.39
-8.864 2.38
-8.863 2.38
-8.862 2.37
-8.861 2.37
-8.86 2.37
-8.859 2.36
-8.858 2.36
-8.857 2.35
-8.856 2.35
-8.855 2.34
-8.854 2.34
-8.853 2.33
-8.852 2.33
-8.851 2.32
-8.85 2.32
-8.849 2.31
-8.848 2.31
-8.847 2.3
-8.846 2.3
-8.845 2.29
-8.844 2.29
-8.843 2.27
-8.842 2.27
-8.841 2.26
-8.84 2.26
-8.839 2.25
-8.838 2.25
-8.837 2.24
-8.836 2.23
-8.835 2.23
-8.834 2.22
-8.833 2.22
-8.832 2.21
-8.831 2.21
-8.83 2.2
-8.829 2.2
-8.828 2.19
-8.827 2.18
-8.826 2.17
-8.825 2.16
-8.824 2.16
-8.823 2.15
-8.822 2.14
-8.821 2.14
-8.82 2.13
-8.819 2.13
-8.818 2.12
-8.817 2.12
-8.816 2.11
-8.815 2.1
-8.814 2.1
-8.813 2.09
-8.812 2.09
-8.811 2.08
-8.81 2.06
-8.809 2.06
-8.808 2.05
-8.807 2.04
-8.806 2.04
-8.805 2.03
-8.804 2.03
-8.803 2.02
-8.802 2.01
-8.801 2.01
-8.8 2.0
-8.799 1.99
-8.798 1.99
-8.797 1.97
-8.796 1.97
-8.795 1.96
-8.794 1.95
-8.793 1.95
-8.792 1.94
-8.791 1.93
-8.79 1.93
-8.789 1.92
-8.788 1.91
-8.787 1.91
-8.786 1.9
-8.785 1.88
-8.784 1.88
-8.783 1.87
-8.782 1.86
-8.781 1.86
-8.78 1.85
-8.779 1.84
-8.778 1.84
-8.777 1.83
-8.776 1.83
-8.775 1.82
-8.774 1.8
-8.773 1.8
-8.772 1.79
-8.771 1.78
-8.77 1.78
-8.769 1.77
-8.768 1.76
-8.767 1.76
-8.766 1.75
-8.765 1.74
-8.764 1.74
-8.763 1.73
-8.762 1.71
-8.761 1.71
-8.76 1.7
-8.759 1.69
-8.758 1.69
-8.757 1.68
-8.756 1.67
-8.755 1.67
-8.754 1.66
-8.753 1.65
-8.752 1.64
-8.751 1.63
-8.75 1.62
-8.749 1.62
-8.748 1.61
-8.747 1.6
-8.746 1.6
-8.745 1.59
-8.744 1.58
-8.743 1.58
-8.742 1.56
-8.741 1.55
-8.74 1.55
-8.739 1.54
-8.738 1.53
-8.737 1.53
-8.736 1.52
-8.735 1.51
-8.734 1.51
-8.733 1.5
-8.732 1.48
-8.731 1.48
-8.73 1.47
-8.729 1.46
-8.728 1.46
-8.727 1.45
-8.726 1.44
-8.725 1.44
-8.724 1.43
-8.723 1.42
-8.722 1.41
-8.721 1.4
-8.72 1.39
-8.719 1.39
-8.718 1.38
-8.717 1.38
-8.716 1.37
-8.715 1.36
-8.714 1.36
-8.713 1.35
-8.712 1.33
-8.711 1.33
-8.71 1.32
-8.709 1.31
-8.708 1.31
-8.707 1.3
-8.706 1.3
-8.705 1.29
-8.704 1.28
-8.703 1.28
-8.702 1.26
-8.701 1.25
-8.7 1.25
-8.699 1.24
-8.698 1.24
-8.697 1.23
-8.696 1.22
-8.695 1.22
-8.694 1.21
-8.693 1.2
-8.692 1.19
-8.691 1.19
-8.69 1.18
-8.689 1.17
-8.688 1.17
-8.687 1.16
-8.686 1.15
-8.685 1.14
-8.684 1.14
-8.683 1.13
-8.682 1.12
-8.681 1.12
-8.68 1.11
-8.679 1.1
-8.678 1.1
-8.677 1.09
-8.676 1.08
-8.675 1.08
-8.674 1.07
-8.673 1.06
-8.672 1.06
-8.671 1.05
-8.67 1.04
-8.669 1.04
-8.668 1.03
-8.667 1.02
-8.666 1.02
-8.665 1.01
-8.664 1.0
-8.663 0.998
-8.662 0.992
-8.661 0.985
-8.66 0.979
-8.659 0.973
-8.658 0.966
-8.657 0.96
-8.656 0.954
-8.655 0.948
-8.654 0.942
-8.653 0.936
-8.652 0.929
-8.651 0.924
-8.65 0.917
-8.649 0.911
-8.648 0.905
-8.647 0.899
-8.646 0.893
-8.645 0.887
-8.644 0.881
-8.643 0.876
-8.642 0.87
-8.641 0.864
-8.64 0.858
-8.639 0.852
-8.638 0.847
-8.637 0.841
-8.636 0.835
-8.635 0.83
-8.634 0.824
-8.633 0.819
-8.632 0.813
-8.631 0.807
-8.63 0.802
-8.629 0.796
-8.628 0.791
-8.627 0.786
-8.626 0.78
-8.625 0.775
-8.624 0.769
-8.623 0.764
-8.622 0.759
-8.621 0.754
-8.62 0.749
-8.619 0.744
-8.618 0.738
-8.617 0.732
-8.616 0.728
-8.615 0.723
-8.614 0.718
-8.613 0.712
-8.612 0.708
-8.611 0.703
-8.61 0.698
-8.609 0.693
-8.608 0.689
-8.607 0.684
-8.606 0.679
-8.605 0.674
-8.604 0.669
-8.603 0.665
-8.602 0.66
-8.601 0.655
-8.6 0.651
-8.599 0.646
-8.598 0.641
-8.597 0.636
-8.596 0.633
-8.595 0.628
-8.594 0.623
-8.593 0.618
-8.592 0.615
-8.591 0.61
-8.59 0.605
-8.589 0.602
-8.588 0.597
-8.587 0.593
-8.586 0.589
-8.585 0.585
-8.584 0.58
-8.583 0.577
-8.582 0.572
-8.581 0.568
-8.58 0.565
-8.579 0.56
-8.578 0.556
-8.577 0.552
-8.576 0.548
-8.575 0.544
-8.574 0.541
-8.573 0.536
-8.572 0.533
-8.571 0.529
-8.57 0.525
-8.569 0.522
-8.568 0.518
-8.567 0.514
-8.566 0.511
-8.565 0.507
-8.564 0.504
-8.563 0.5
-8.562 0.497
-8.561 0.493
-8.56 0.489
-8.559 0.486
-8.558 0.482
-8.557 0.479
-8.556 0.475
-8.555 0.473
-8.554 0.469
-8.553 0.465
-8.552 0.462
-8.551 0.459
-8.55 0.456
-8.549 0.452
-8.548 0.45
-8.547 0.446
-8.546 0.443
-8.545 0.44
-8.544 0.437
-8.543 0.434
-8.542 0.431
-8.541 0.428
-8.54 0.425
-8.539 0.422
-8.538 0.419
-8.537 0.416
-8.536 0.414
-8.535 0.41
-8.534 0.408
-8.533 0.405
-8.532 0.402
-8.531 0.399
-8.53 0.397
-8.529 0.393
-8.528 0.391
-8.527 0.389
-8.526 0.386
-8.525 0.384
-8.524 0.38
-8.523 0.378
-8.522 0.375
-8.521 0.373
-8.52 0.371
-8.519 0.368
-8.518 0.366
-8.517 0.363
-8.516 0.361
-8.515 0.358
-8.514 0.356
-8.513 0.354
-8.512 0.351
-8.511 0.349
-8.51 0.346
-8.509 0.344
-8.508 0.343
-8.507 0.34
-8.506 0.338
-8.505 0.336
-8.504 0.333
-8.503 0.331
-8.502 0.329
-8.501 0.327
-8.5 0.325
-8.499 0.323
-8.498 0.321
-8.497 0.319
-8.496 0.317
-8.495 0.315
-8.494 0.313
-8.493 0.311
-8.492 0.309
-8.491 0.307
-8.49 0.306
-8.489 0.303
-8.488 0.302
-8.487 0.299
-8.486 0.298
-8.485 0.296
-8.484 0.295
-8.483 0.292
-8.482 0.291
-8.481 0.289
-8.48 0.287
-8.479 0.286
-8.478 0.284
-8.477 0.282
-8.476 0.28
-8.475 0.279
-8.474 0.278
-8.473 0.275
-8.472 0.274
-8.471 0.273
-8.47 0.271
-8.469 0.269
-8.468 0.268
-8.467 0.267
-8.466 0.264
-8.465 0.263
-8.464 0.262
-8.463 0.261
-8.462 0.259
-8.461 0.257
-8.46 0.256
-8.459 0.255
-8.458 0.254
-8.457 0.252
-8.456 0.251
-8.455 0.25
-8.454 0.248
-8.453 0.246
-8.452 0.245
-8.451 0.244
-8.45 0.243
-8.449 0.242
-8.448 0.24
-8.447 0.239
-8.446 0.238
-8.445 0.237
-8.444 0.235
-8.443 0.234
-8.442 0.233
-8.441 0.232
-8.44 0.231
-8.439 0.229
-8.438 0.228
-8.437 0.227
-8.436 0.226
-8.435 0.225
-8.434 0.223
-8.433 0.223
-8.432 0.222
-8.431 0.221
-8.43 0.22
-8.429 0.219
-8.428 0.217
-8.427 0.216
-8.426 0.216
-8.425 0.215
-8.424 0.214
-8.423 0.213
-8.422 0.211
-8.421 0.21
-8.42 0.21
-8.419 0.209
-8.418 0.208
-8.417 0.207
-8.416 0.205
-8.415 0.205
-8.414 0.204
-8.413 0.203
-8.412 0.202
-8.411 0.202
-8.41 0.201
-8.409 0.199
-8.408 0.199
-8.407 0.198
-8.406 0.197
-8.405 0.196
-8.404 0.196
-8.403 0.195
-8.402 0.193
-8.401 0.193
-8.4 0.192
-8.399 0.191
-8.398 0.191
-8.397 0.19
-8.396 0.189
-8.395 0.188
-8.394 0.187
-8.393 0.187
-8.392 0.186
-8.391 0.185
-8.39 0.185
-8.389 0.184
-8.388 0.183
-8.387 0.183
-8.386 0.181
-8.385 0.181
-8.384 0.18
-8.383 0.179
-8.382 0.179
-8.381 0.178
-8.38 0.178
-8.379 0.177
-8.378 0.177
-8.377 0.175
-8.376 0.174
-8.375 0.174
-8.374 0.173
-8.373 0.173
-8.372 0.172
-8.371 0.172
-8.37 0.171
-8.369 0.171
-8.368 0.17
-8.367 0.169
-8.366 0.168
-8.365 0.168
-8.364 0.167
-8.363 0.167
-8.362 0.166
-8.361 0.166
-8.36 0.165
-8.359 0.165
-8.358 0.164
-8.357 0.163
-8.356 0.162
-8.355 0.162
-8.354 0.161
-8.353 0.161
-8.352 0.16
-8.351 0.16
-8.35 0.159
-8.349 0.159
-8.348 0.158
-8.347 0.158
-8.346 0.157
-8.345 0.156
-8.344 0.155
-8.343 0.155
-8.342 0.154
-8.341 0.154
-8.34 0.153
-8.339 0.153
-8.338 0.153
-8.337 0.152
-8.336 0.152
-8.335 0.151
-8.334 0.151
-8.333 0.15
-8.332 0.15
-8.331 0.148
-8.33 0.148
-8.329 0.148
-8.328 0.147
-8.327 0.147
-8.326 0.146
-8.325 0.146
-8.324 0.145
-8.323 0.145
-8.322 0.145
-8.321 0.144
-8.32 0.144
-8.319 0.143
-8.318 0.143
-8.317 0.143
-8.316 0.141
-8.315 0.142
-8.314 0.14
-8.313 0.14
-8.312 0.139
-8.311 0.139
-8.31 0.139
-8.309 0.138
-8.308 0.138
-8.307 0.137
-8.306 0.137
-8.305 0.137
-8.304 0.136
-8.303 0.136
-8.302 0.135
-8.301 0.135
-8.3 0.134
-8.299 0.134
-8.298 0.134
-8.297 0.133
-8.296 0.133
-8.295 0.132
-8.294 0.132
-8.293 0.131
-8.292 0.131
-8.291 0.13
-8.29 0.13
-8.289 0.13
-8.288 0.129
-8.287 0.129
-8.286 0.128
-8.285 0.128
-8.284 0.127
-8.283 0.127
-8.282 0.127
-8.281 0.126
-8.28 0.126
-8.279 0.126
-8.278 0.125
-8.277 0.125
-8.276 0.124
-8.275 0.124
-8.274 0.124
-8.273 0.123
-8.272 0.123
-8.271 0.122
-8.27 0.122
-8.269 0.122
-8.268 0.121
-8.267 0.121
-8.266 0.12
-8.265 0.12
-8.264 0.12
-8.263 0.119
-8.262 0.119
-8.261 0.119
-8.26 0.118
-8.259 0.118
-8.258 0.118
-8.257 0.117
-8.256 0.117
-8.255 0.116
-8.254 0.116
-8.253 0.116
-8.252 0.115
-8.251 0.115
-8.25 0.115
-8.249 0.114
-8.248 0.114
-8.247 0.114
-8.246 0.113
-8.245 0.113
-8.244 0.113
-8.243 0.112
-8.242 0.112
-8.241 0.112
-8.24 0.111
-8.239 0.111
-8.238 0.111
-8.237 0.11
-8.236 0.11
-8.235 0.11
-8.234 0.11
-8.233 0.109
-8.232 0.109
-8.231 0.109
-8.23 0.108
-8.229 0.108
-8.228 0.108
-8.227 0.108
-8.226 0.107
-8.225 0.107
-8.224 0.107
-8.223 0.107
-8.222 0.106
-8.221 0.106
-8.22 0.106
-8.219 0.106
-8.218 0.105
-8.217 0.105
-8.216 0.105
-8.215 0.105
-8.214 0.105
-8.213 0.104
-8.212 0.104
-8.211 0.104
-8.21 0.104
-8.209 0.103
-8.208 0.103
-8.207 0.103
-8.206 0.103
-8.205 0.103
-8.204 0.102
-8.203 0.102
-8.202 0.102
-8.201 0.102
-8.2 0.102
-8.199 0.102
-8.198 0.101
-8.197 0.101
-8.196 0.101
-8.195 0.101
-8.194 0.101
-8.193 0.101
-8.192 0.101
-8.191 0.101
-8.19 0.101
-8.189 0.1
-8.188 0.1
-8.187 0.1
-8.186 0.1
-8.185 0.1
-8.184 0.1
-8.183 0.1
-8.182 0.0999
-8.181 0.0999
-8.18 0.0998
-8.179 0.0998
-8.178 0.0997
-8.177 0.0997
-8.176 0.0997
-8.175 0.0997
-8.174 0.0997
-8.173 0.0997
-8.172 0.0998
-8.171 0.0997
-8.17 0.0997
-8.169 0.0998
-8.168 0.0998
-8.167 0.0999
-8.166 0.0999
-8.165 0.1
-8.164 0.1
-8.163 0.1
-8.162 0.1
-8.161 0.1
-8.16 0.1
-8.159 0.1
-8.158 0.101
-8.157 0.101
-8.156 0.101
-8.155 0.101
-8.154 0.101
-8.153 0.101
-8.152 0.102
-8.151 0.102
-8.15 0.102
-8.149 0.102
-8.148 0.102
-8.147 0.102
-8.146 0.103
-8.145 0.103
-8.144 0.103
-8.143 0.103
-8.142 0.104
-8.141 0.104
-8.14 0.104
-8.139 0.104
-8.138 0.105
-8.137 0.105
-8.136 0.105
-8.135 0.106
-8.134 0.106
-8.133 0.106
-8.132 0.107
-8.131 0.107
-8.13 0.108
-8.129 0.108
-8.128 0.108
-8.127 0.109
-8.126 0.109
-8.125 0.11
-8.124 0.11
-8.123 0.111
-8.122 0.111
-8.121 0.112
-8.12 0.112
-8.119 0.113
-8.118 0.113
-8.117 0.114
-8.116 0.114
-8.115 0.115
-8.114 0.115
-8.113 0.116
-8.112 0.117
-8.111 0.117
-8.11 0.118
-8.109 0.118
-8.108 0.119
-8.107 0.12
-8.106 0.12
-8.105 0.121
-8.104 0.122
-8.103 0.123
-8.102 0.123
-8.101 0.124
-8.1 0.125
-8.099 0.126
-8.098 0.126
-8.097 0.127
-8.096 0.128
-8.095 0.129
-8.094 0.13
-8.093 0.131
-8.092 0.132
-8.091 0.132
-8.09 0.133
-8.089 0.134
-8.088 0.135
-8.087 0.137
-8.086 0.137
-8.085 0.138
-8.084 0.139
-8.083 0.141
-8.082 0.142
-8.081 0.142
-8.08 0.144
-8.079 0.145
-8.078 0.146
-8.077 0.147
-8.076 0.148
-8.075 0.149
-8.074 0.151
-8.073 0.151
-8.072 0.153
-8.071 0.154
-8.07 0.156
-8.069 0.157
-8.068 0.158
-8.067 0.159
-8.066 0.161
-8.065 0.162
-8.064 0.164
-8.063 0.165
-8.062 0.166
-8.061 0.168
-8.06 0.17
-8.059 0.171
-8.058 0.172
-8.057 0.174
-8.056 0.175
-8.055 0.177
-8.054 0.179
-8.053 0.18
-8.052 0.182
-8.051 0.183
-8.05 0.185
-8.049 0.187
-8.048 0.189
-8.047 0.19
-8.046 0.192
-8.045 0.194
-8.044 0.196
-8.043 0.198
-8.042 0.2
-8.041 0.201
-8.04 0.203
-8.039 0.205
-8.038 0.207
-8.037 0.209
-8.036 0.211
-8.035 0.214
-8.034 0.215
-8.033 0.217
-8.032 0.219
-8.031 0.222
-8.03 0.224
-8.029 0.226
-8.028 0.229
-8.027 0.23
-8.026 0.232
-8.025 0.235
-8.024 0.237
-8.023 0.24
-8.022 0.242
-8.021 0.245
-8.02 0.247
-8.019 0.249
-8.018 0.251
-8.017 0.254
-8.016 0.256
-8.015 0.259
-8.014 0.262
-8.013 0.264
-8.012 0.267
-8.011 0.27
-8.01 0.273
-8.009 0.274
-8.008 0.277
-8.007 0.28
-8.006 0.283
-8.005 0.286
-8.004 0.289
-8.003 0.292
-8.002 0.295
-8.001 0.298
-8.0 0.301
-7.999 0.304
-7.998 0.306
-7.997 0.309
-7.996 0.312
-7.995 0.315
-7.994 0.319
-7.993 0.322
-7.992 0.325
-7.991 0.328
-7.99 0.332
-7.989 0.335
-7.988 0.338
-7.987 0.342
-7.986 0.345
-7.985 0.349
-7.984 0.352
-7.983 0.356
-7.982 0.359
-7.981 0.363
-7.98 0.366
-7.979 0.369
-7.978 0.373
-7.977 0.376
-7.976 0.38
-7.975 0.384
-7.974 0.388
-7.973 0.392
-7.972 0.395
-7.971 0.399
-7.97 0.403
-7.969 0.407
-7.968 0.411
-7.967 0.415
-7.966 0.419
-7.965 0.423
-7.964 0.427
-7.963 0.431
-7.962 0.436
-7.961 0.44
-7.96 0.444
-7.959 0.448
-7.958 0.453
-7.957 0.457
-7.956 0.461
-7.955 0.466
-7.954 0.47
-7.953 0.475
-7.952 0.479
-7.951 0.484
-7.95 0.488
-7.949 0.493
-7.948 0.497
-7.947 0.502
-7.946 0.507
-7.945 0.511
-7.944 0.516
-7.943 0.521
-7.942 0.526
-7.941 0.532
-7.94 0.536
-7.939 0.541
-7.938 0.546
-7.937 0.551
-7.936 0.556
-7.935 0.561
-7.934 0.566
-7.933 0.572
-7.932 0.577
-7.931 0.582
-7.93 0.587
-7.929 0.592
-7.928 0.598
-7.927 0.603
-7.926 0.608
-7.925 0.614
-7.924 0.619
-7.923 0.625
-7.922 0.631
-7.921 0.637
-7.92 0.642
-7.919 0.648
-7.918 0.654
-7.917 0.659
-7.916 0.665
-7.915 0.671
-7.914 0.676
-7.913 0.682
-7.912 0.688
-7.911 0.694
-7.91 0.701
-7.909 0.707
-7.908 0.713
-7.907 0.719
-7.906 0.725
-7.905 0.731
-7.904 0.737
-7.903 0.743
-7.902 0.749
-7.901 0.755
-7.9 0.763
-7.899 0.769
-7.898 0.775
-7.897 0.782
-7.896 0.788
-7.895 0.794
-7.894 0.801
-7.893 0.807
-7.892 0.814
-7.891 0.821
-7.89 0.828
-7.889 0.835
-7.888 0.841
-7.887 0.848
-7.886 0.855
-7.885 0.861
-7.884 0.869
-7.883 0.876
-7.882 0.883
-7.881 0.89
-7.88 0.897
-7.879 0.904
-7.878 0.911
-7.877 0.919
-7.876 0.926
-7.875 0.933
-7.874 0.94
-7.873 0.947
-7.872 0.954
-7.871 0.961
-7.87 0.97
-7.869 0.977
-7.868 0.984
-7.867 0.991
-7.866 0.999
-7.865 1.01
-7.864 1.01
-7.863 1.02
-7.862 1.03
-7.861 1.04
-7.86 1.05
-7.859 1.05
-7.858 1.06
-7.857 1.07
-7.856 1.08
-7.855 1.08
-7.854 1.09
-7.853 1.1
-7.852 1.11
-7.851 1.11
-7.85 1.12
-7.849 1.13
-7.848 1.14
-7.847 1.15
-7.846 1.15
-7.845 1.16
-7.844 1.17
-7.843 1.18
-7.842 1.19
-7.841 1.19
-7.84 1.2
-7.839 1.21
-7.838 1.22
-7.837 1.23
-7.836 1.23
-7.835 1.24
-7.834 1.25
-7.833 1.26
-7.832 1.27
-7.831 1.28
-7.83 1.29
-7.829 1.3
-7.828 1.31
-7.827 1.32
-7.826 1.33
-7.825 1.34
-7.824 1.34
-7.823 1.35
-7.822 1.36
-7.821 1.37
-7.82 1.38
-7.819 1.39
-7.818 1.4
-7.817 1.4
-7.816 1.41
-7.815 1.42
-7.814 1.43
-7.813 1.44
-7.812 1.45
-7.811 1.46
-7.81 1.46
-7.809 1.47
-7.808 1.48
-7.807 1.49
-7.806 1.5
-7.805 1.51
-7.804 1.52
-7.803 1.53
-7.802 1.53
-7.801 1.54
-7.8 1.55
-7.799 1.56
-7.798 1.57
-7.797 1.58
-7.796 1.59
-7.795 1.6
-7.794 1.61
-7.793 1.61
-7.792 1.62
-7.791 1.63
-7.79 1.64
-7.789 1.65
-7.788 1.66
-7.787 1.68
-7.786 1.69
-7.785 1.7
-7.784 1.7
-7.783 1.71
-7.782 1.72
-7.781 1.73
-7.78 1.74
-7.779 1.75
-7.778 1.76
-7.777 1.77
-7.776 1.78
-7.775 1.79
-7.774 1.79
-7.773 1.8
-7.772 1.81
-7.771 1.82
-7.77 1.83
-7.769 1.84
-7.768 1.85
-7.767 1.86
-7.766 1.87
-7.765 1.88
-7.764 1.88
-7.763 1.89
-7.762 1.9
-7.761 1.91
-7.76 1.92
-7.759 1.93
-7.758 1.94
-7.757 1.95
-7.756 1.96
-7.755 1.96
-7.754 1.97
-7.753 1.98
-7.752 1.99
-7.751 2.0
-7.75 2.01
-7.749 2.03
-7.748 2.04
-7.747 2.05
-7.746 2.05
-7.745 2.06
-7.744 2.07
-7.743 2.08
-7.742 2.09
-7.741 2.1
-7.74 2.11
-7.739 2.12
-7.738 2.12
-7.737 2.13
-7.736 2.14
-7.735 2.15
-7.734 2.16
-7.733 2.17
-7.732 2.18
-7.731 2.18
-7.73 2.19
-7.729 2.2
-7.728 2.21
-7.727 2.22
-7.726 2.23
-7.725 2.23
-7.724 2.24
-7.723 2.25
-7.722 2.26
-7.721 2.27
-7.72 2.28
-7.719 2.28
-7.718 2.29
-7.717 2.3
-7.716 2.31
-7.715 2.32
-7.714 2.32
-7.713 2.33
-7.712 2.34
-7.711 2.36
-7.71 2.37
-7.709 2.37
-7.708 2.38
-7.707 2.39
-7.706 2.4
-7.705 2.41
-7.704 2.41
-7.703 2.42
-7.702 2.43
-7.701 2.44
-7.7 2.44
-7.699 2.45
-7.698 2.46
-7.697 2.47
-7.696 2.47
-7.695 2.48
-7.694 2.49
-7.693 2.5
-7.692 2.5
-7.691 2.51
-7.69 2.52
-7.689 2.52
-7.688 2.53
-7.687 2.54
-7.686 2.55
-7.685 2.55
-7.684 2.56
-7.683 2.57
-7.682 2.57
-7.681 2.58
-7.68 2.59
-7.679 2.59
-7.678 2.6
-7.677 2.61
-7.676 2.61
-7.675 2.62
-7.674 2.63
-7.673 2.63
-7.672 2.64
-7.671 2.64
-7.67 2.66
-7.669 2.67
-7.668 2.67
-7.667 2.68
-7.666 2.68
-7.665 2.69
-7.664 2.7
-7.663 2.7
-7.662 2.71
-7.661 2.71
-7.66 2.72
-7.659 2.73
-7.658 2.73
-7.657 2.74
-7.656 2.74
-7.655 2.75
-7.654 2.75
-7.653 2.76
-7.652 2.76
-7.651 2.77
-7.65 2.77
-7.649 2.78
-7.648 2.78
-7.647 2.79
-7.646 2.79
-7.645 2.8
-7.644 2.8
-7.643 2.81
-7.642 2.81
-7.641 2.81
-7.64 2.82
-7.639 2.82
-7.638 2.83
-7.637 2.83
-7.636 2.84
-7.635 2.84
-7.634 2.84
-7.633 2.85
-7.632 2.85
-7.631 2.86
-7.63 2.86
-7.629 2.86
-7.628 2.87
-7.627 2.87
-7.626 2.87
-7.625 2.88
-7.624 2.88
-7.623 2.88
-7.622 2.89
-7.621 2.89
-7.62 2.89
-7.619 2.9
-7.618 2.9
-7.617 2.9
-7.616 2.9
-7.615 2.91
-7.614 2.91
-7.613 2.92
-7.612 2.92
-7.611 2.93
-7.61 2.93
-7.609 2.93
-7.608 2.93
-7.607 2.93
-7.606 2.94
-7.605 2.94
-7.604 2.94
-7.603 2.94
-7.602 2.94
-7.601 2.95
-7.6 2.95
-7.599 2.95
-7.598 2.95
-7.597 2.95
-7.596 2.95
-7.595 2.95
-7.594 2.95
-7.593 2.96
-7.592 2.96
-7.591 2.96
-7.59 2.96
-7.589 2.96
-7.588 2.96
-7.587 2.96
-7.586 2.96
-7.585 2.96
-7.584 2.96
-7.583 2.96
-7.582 2.96
-7.581 2.96
-7.58 2.96
-7.579 2.96
-7.578 2.96
-7.577 2.96
-7.576 2.96
-7.575 2.96
-7.574 2.96
-7.573 2.96
-7.572 2.96
-7.571 2.96
-7.57 2.96
-7.569 2.96
-7.568 2.96
-7.567 2.95
-7.566 2.95
-7.565 2.95
-7.564 2.95
-7.563 2.95
-7.562 2.95
-7.561 2.95
-7.56 2.95
-7.559 2.94
-7.558 2.94
-7.557 2.94
-7.556 2.94
-7.555 2.94
-7.554 2.94
-7.553 2.93
-7.552 2.93
-7.551 2.93
-7.55 2.93
-7.549 2.92
-7.548 2.92
-7.547 2.92
-7.546 2.92
-7.545 2.91
-7.544 2.91
-7.543 2.91
-7.542 2.91
-7.541 2.9
-7.54 2.9
-7.539 2.9
-7.538 2.89
-7.537 2.89
-7.536 2.89
-7.535 2.88
-7.534 2.88
-7.533 2.88
-7.532 2.87
-7.531 2.87
-7.53 2.87
-7.529 2.86
-7.528 2.86
-7.527 2.85
-7.526 2.85
-7.525 2.85
-7.524 2.84
-7.523 2.84
-7.522 2.83
-7.521 2.83
-7.52 2.83
-7.519 2.82
-7.518 2.82
-7.517 2.81
-7.516 2.81
-7.515 2.8
-7.514 2.8
-7.513 2.79
-7.512 2.79
-7.511 2.78
-7.51 2.78
-7.509 2.77
-7.508 2.77
-7.507 2.76
-7.506 2.76
-7.505 2.75
-7.504 2.74
-7.503 2.73
-7.502 2.73
-7.501 2.72
-7.5 2.72
-7.499 2.71
-7.498 2.7
-7.497 2.7
-7.496 2.69
-7.495 2.69
-7.494 2.68
-7.493 2.67
-7.492 2.67
-7.491 2.66
-7.49 2.66
-7.489 2.65
-7.488 2.64
-7.487 2.64
-7.486 2.63
-7.485 2.62
-7.484 2.62
-7.483 2.61
-7.482 2.6
-7.481 2.6
-7.48 2.59
-7.479 2.58
-7.478 2.58
-7.477 2.57
-7.476 2.56
-7.475 2.56
-7.474 2.55
-7.473 2.54
-7.472 2.54
-7.471 2.53
-7.47 2.52
-7.469 2.52
-7.468 2.51
-7.467 2.5
-7.466 2.49
-7.465 2.49
-7.464 2.48
-7.463 2.47
-7.462 2.46
-7.461 2.46
-7.46 2.45
-7.459 2.44
-7.458 2.43
-7.457 2.43
-7.456 2.42
-7.455 2.41
-7.454 2.4
-7.453 2.39
-7.452 2.39
-7.451 2.38
-7.45 2.37
-7.449 2.36
-7.448 2.35
-7.447 2.34
-7.446 2.33
-7.445 2.32
-7.444 2.31
-7.443 2.3
-7.442 2.3
-7.441 2.29
-7.44 2.28
-7.439 2.27
-7.438 2.26
-7.437 2.26
-7.436 2.25
-7.435 2.24
-7.434 2.23
-7.433 2.22
-7.432 2.21
-7.431 2.2
-7.43 2.2
-7.429 2.19
-7.428 2.18
-7.427 2.17
-7.426 2.16
-7.425 2.15
-7.424 2.14
-7.423 2.14
-7.422 2.13
-7.421 2.12
-7.42 2.11
-7.419 2.1
-7.418 2.09
-7.417 2.08
-7.416 2.08
-7.415 2.07
-7.414 2.06
-7.413 2.05
-7.412 2.04
-7.411 2.03
-7.41 2.02
-7.409 2.01
-7.408 2.0
-7.407 2.0
-7.406 1.98
-7.405 1.97
-7.404 1.96
-7.403 1.95
-7.402 1.94
-7.401 1.93
-7.4 1.92
-7.399 1.91
-7.398 1.91
-7.397 1.9
-7.396 1.89
-7.395 1.88
-7.394 1.87
-7.393 1.86
-7.392 1.85
-7.391 1.84
-7.39 1.83
-7.389 1.83
-7.388 1.82
-7.387 1.81
-7.386 1.8
-7.385 1.79
-7.384 1.78
-7.383 1.77
-7.382 1.76
-7.381 1.75
-7.38 1.74
-7.379 1.74
-7.378 1.73
-7.377 1.72
-7.376 1.71
-7.375 1.7
-7.374 1.69
-7.373 1.68
-7.372 1.67
-7.371 1.66
-7.37 1.66
-7.369 1.64
-7.368 1.63
-7.367 1.62
-7.366 1.61
-7.365 1.6
-7.364 1.59
-7.363 1.58
-7.362 1.57
-7.361 1.57
-7.36 1.56
-7.359 1.55
-7.358 1.54
-7.357 1.53
-7.356 1.52
-7.355 1.51
-7.354 1.5
-7.353 1.49
-7.352 1.49
-7.351 1.48
-7.35 1.47
-7.349 1.46
-7.348 1.45
-7.347 1.44
-7.346 1.43
-7.345 1.43
-7.344 1.42
-7.343 1.41
-7.342 1.4
-7.341 1.39
-7.34 1.38
-7.339 1.37
-7.338 1.37
-7.337 1.36
-7.336 1.35
-7.335 1.34
-7.334 1.33
-7.333 1.31
-7.332 1.31
-7.331 1.3
-7.33 1.29
-7.329 1.28
-7.328 1.27
-7.327 1.26
-7.326 1.26
-7.325 1.25
-7.324 1.24
-7.323 1.23
-7.322 1.22
-7.321 1.22
-7.32 1.21
-7.319 1.2
-7.318 1.19
-7.317 1.18
-7.316 1.17
-7.315 1.17
-7.314 1.16
-7.313 1.15
-7.312 1.14
-7.311 1.14
-7.31 1.13
-7.309 1.12
-7.308 1.11
-7.307 1.1
-7.306 1.1
-7.305 1.09
-7.304 1.08
-7.303 1.07
-7.302 1.07
-7.301 1.06
-7.3 1.05
-7.299 1.04
-7.298 1.03
-7.297 1.02
-7.296 1.02
-7.295 1.01
-7.294 1.0
-7.293 0.994
-7.292 0.986
-7.291 0.978
-7.29 0.971
-7.289 0.964
-7.288 0.956
-7.287 0.949
-7.286 0.942
-7.285 0.934
-7.284 0.926
-7.283 0.919
-7.282 0.912
-7.281 0.905
-7.28 0.897
-7.279 0.891
-7.278 0.884
-7.277 0.877
-7.276 0.87
-7.275 0.862
-7.274 0.856
-7.273 0.849
-7.272 0.842
-7.271 0.835
-7.27 0.828
-7.269 0.821
-7.268 0.815
-7.267 0.808
-7.266 0.801
-7.265 0.795
-7.264 0.788
-7.263 0.782
-7.262 0.774
-7.261 0.768
-7.26 0.762
-7.259 0.756
-7.258 0.749
-7.257 0.742
-7.256 0.736
-7.255 0.73
-7.254 0.724
-7.253 0.718
-7.252 0.711
-7.251 0.705
-7.25 0.699
-7.249 0.693
-7.248 0.686
-7.247 0.68
-7.246 0.675
-7.245 0.669
-7.244 0.663
-7.243 0.658
-7.242 0.651
-7.241 0.645
-7.24 0.64
-7.239 0.634
-7.238 0.629
-7.237 0.622
-7.236 0.617
-7.235 0.611
-7.234 0.606
-7.233 0.6
-7.232 0.594
-7.231 0.589
-7.23 0.584
-7.229 0.578
-7.228 0.573
-7.227 0.568
-7.226 0.562
-7.225 0.557
-7.224 0.552
-7.223 0.547
-7.222 0.542
-7.221 0.536
-7.22 0.531
-7.219 0.526
-7.218 0.521
-7.217 0.516
-7.216 0.512
-7.215 0.506
-7.214 0.501
-7.213 0.497
-7.212 0.492
-7.211 0.487
-7.21 0.483
-7.209 0.477
-7.208 0.473
-7.207 0.468
-7.206 0.464
-7.205 0.459
-7.204 0.455
-7.203 0.45
-7.202 0.445
-7.201 0.441
-7.2 0.437
-7.199 0.432
-7.198 0.428
-7.197 0.424
-7.196 0.419
-7.195 0.415
-7.194 0.411
-7.193 0.407
-7.192 0.403
-7.191 0.399
-7.19 0.394
-7.189 0.39
-7.188 0.386
-7.187 0.382
-7.186 0.378
-7.185 0.374
-7.184 0.371
-7.183 0.367
-7.182 0.362
-7.181 0.359
-7.18 0.355
-7.179 0.351
-7.178 0.348
-7.177 0.344
-7.176 0.341
-7.175 0.337
-7.174 0.333
-7.173 0.329
-7.172 0.326
-7.171 0.322
-7.17 0.319
-7.169 0.316
-7.168 0.312
-7.167 0.309
-7.166 0.305
-7.165 0.302
-7.164 0.299
-7.163 0.295
-7.162 0.292
-7.161 0.289
-7.16 0.286
-7.159 0.283
-7.158 0.279
-7.157 0.276
-7.156 0.273
-7.155 0.27
-7.154 0.267
-7.153 0.264
-7.152 0.261
-7.151 0.259
-7.15 0.256
-7.149 0.253
-7.148 0.249
-7.147 0.246
-7.146 0.244
-7.145 0.241
-7.144 0.238
-7.143 0.236
-7.142 0.233
-7.141 0.23
-7.14 0.228
-7.139 0.225
-7.138 0.222
-7.137 0.219
-7.136 0.217
-7.135 0.214
-7.134 0.212
-7.133 0.21
-7.132 0.207
-7.131 0.205
-7.13 0.202
-7.129 0.2
-7.128 0.198
-7.127 0.195
-7.126 0.192
-7.125 0.19
-7.124 0.188
-7.123 0.186
-7.122 0.184
-7.121 0.181
-7.12 0.179
-7.119 0.177
-7.118 0.175
-7.117 0.173
-7.116 0.171
-7.115 0.168
-7.114 0.166
-7.113 0.164
-7.112 0.162
-7.111 0.16
-7.11 0.158
-7.109 0.156
-7.108 0.155
-7.107 0.153
-7.106 0.151
-7.105 0.149
-7.104 0.147
-7.103 0.146
-7.102 0.144
-7.101 0.141
-7.1 0.139
-7.099 0.138
-7.098 0.136
-7.097 0.134
-7.096 0.133
-7.095 0.131
-7.094 0.129
-7.093 0.128
-7.092 0.126
-7.091 0.125
-7.09 0.123
-7.089 0.122
-7.088 0.12
-7.087 0.119
-7.086 0.117
-7.085 0.115
-7.084 0.113
-7.083 0.112
-7.082 0.11
-7.081 0.109
-7.08 0.108
-7.079 0.106
-7.078 0.105
-7.077 0.104
-7.076 0.102
-7.075 0.101
-7.074 0.0995
-7.073 0.0982
-7.072 0.0968
-7.071 0.0956
-7.07 0.0943
-7.069 0.093
-7.068 0.0917
-7.067 0.0905
-7.066 0.0893
-7.065 0.0881
-7.064 0.0869
-7.063 0.0857
-7.062 0.0845
-7.061 0.0834
-7.06 0.0822
-7.059 0.0811
-7.058 0.08
-7.057 0.0789
-7.056 0.0778
-7.055 0.0767
-7.054 0.0757
-7.053 0.0747
-7.052 0.0736
-7.051 0.0726
-7.05 0.0715
-7.049 0.0706
-7.048 0.0696
-7.047 0.0686
-7.046 0.0676
-7.045 0.0667
-7.044 0.0657
-7.043 0.0648
-7.042 0.0639
-7.041 0.063
-7.04 0.0621
-7.039 0.0612
-7.038 0.0603
-7.037 0.0595
-7.036 0.0586
-7.035 0.0578
-7.034 0.057
-7.033 0.0562
-7.032 0.0553
-7.031 0.0546
-7.03 0.0538
-7.029 0.0529
-7.028 0.0522
-7.027 0.0515
-7.026 0.0507
-7.025 0.05
-7.024 0.0492
-7.023 0.0486
-7.022 0.0478
-7.021 0.0471
-7.02 0.0464
-7.019 0.0457
-7.018 0.045
-7.017 0.0444
-7.016 0.0438
-7.015 0.043
-7.014 0.0424
-7.013 0.0418
-7.012 0.0412
-7.011 0.0405
-7.01 0.0399
-7.009 0.0394
-7.008 0.0388
-7.007 0.0382
-7.006 0.0376
-7.005 0.037
-7.004 0.0365
-7.003 0.036
-7.002 0.0353
-7.001 0.0348
-7.0 0.0343
-6.999 0.0338
-6.998 0.0333
-6.997 0.0327
-6.996 0.0322
-6.995 0.0318
-6.994 0.0313
-6.993 0.0308
-6.992 0.0303
-6.991 0.0298
-6.99 0.0294
-6.989 0.0289
-6.988 0.0285
-6.987 0.0281
-6.986 0.0276
-6.985 0.0272
-6.984 0.0267
-6.983 0.0263
-6.982 0.0259
-6.981 0.0256
-6.98 0.0251
-6.979 0.0247
-6.978 0.0243
-6.977 0.0239
-6.976 0.0236
-6.975 0.0232
-6.974 0.0228
-6.973 0.0224
-6.972 0.0221
-6.971 0.0217
-6.97 0.0214
-6.969 0.0211
-6.968 0.0207
-6.967 0.0203
-6.966 0.02
-6.965 0.0197
-6.964 0.0194
-6.963 0.0191
-6.962 0.0188
-6.961 0.0185
-6.96 0.0182
-6.959 0.0178
-6.958 0.0175
-6.957 0.0173
-6.956 0.017
-6.955 0.0167
-6.954 0.0165
-6.953 0.0162
-6.952 0.016
-6.951 0.0157
-6.95 0.0154
-6.949 0.0151
-6.948 0.0149
-6.947 0.0146
-6.946 0.0144
-6.945 0.0142
-6.944 0.0139
-6.943 0.0137
-6.942 0.0135
-6.941 0.0133
-6.94 0.013
-6.939 0.0128
-6.938 0.0125
-6.937 0.0123
-6.936 0.0121
-6.935 0.0119
-6.934 0.0118
-6.933 0.0116
-6.932 0.0114
-6.931 0.0112
-6.93 0.011
-6.929 0.0108
-6.928 0.0105
-6.927 0.0104
-6.926 0.0102
-6.925 0.0101
-6.924 0.00989
-6.923 0.00972
-6.922 0.00956
-6.921 0.00939
-6.92 0.00922
-6.919 0.00907
-6.918 0.00891
-6.917 0.00875
-6.916 0.0086
-6.915 0.00845
-6.914 0.0083
-6.913 0.00816
-6.912 0.00801
-6.911 0.00788
-6.91 0.00773
-6.909 0.00759
-6.908 0.00746
-6.907 0.00733
-6.906 0.0072
-6.905 0.00707
-6.904 0.00695
-6.903 0.00682
-6.902 0.00671
-6.901 0.00658
-6.9 0.00647
-6.899 0.00635
-6.898 0.00624
-6.897 0.00612
-6.896 0.00602
-6.895 0.0059
-6.894 0.0058
-6.893 0.0057
-6.892 0.00559
-6.891 0.0055
-6.89 0.00539
-6.889 0.0053
-6.888 0.00521
-6.887 0.00511
-6.886 0.00502
-6.885 0.00492
-6.884 0.00483
-6.883 0.00475
-6.882 0.00466
-6.881 0.00457
-6.88 0.00448
-6.879 0.0044
-6.878 0.00433
-6.877 0.00424
-6.876 0.00417
-6.875 0.00409
-6.874 0.00402
-6.873 0.00394
-6.872 0.00387
-6.871 0.0038
-6.87 0.00372
-6.869 0.00366
-6.868 0.00359
-6.867 0.00352
-6.866 0.00345
-6.865 0.00339
-6.864 0.00333
-6.863 0.00326
-6.862 0.0032
-6.861 0.00314
-6.86 0.00308
-6.859 0.00302
-6.858 0.00297
-6.857 0.00291
-6.856 0.00286
-6.855 0.0028
-6.854 0.00275
-6.853 0.0027
-6.852 0.00265
-6.851 0.00259
-6.85 0.00254
-6.849 0.00249
-6.848 0.00245
-6.847 0.0024
-6.846 0.00235
-6.845 0.00231
-6.844 0.00226
-6.843 0.00222
-6.842 0.00218
-6.841 0.00213
-6.84 0.00209
-6.839 0.00205
-6.838 0.00201
-6.837 0.00198
-6.836 0.00194
-6.835 0.00189
-6.834 0.00186
-6.833 0.00182
-6.832 0.00179
-6.831 0.00176
-6.83 0.00172
-6.829 0.00169
-6.828 0.00165
-6.827 0.00162
-6.826 0.00159
-6.825 0.00156
-6.824 0.00153
-6.823 0.0015
-6.822 0.00147
-6.821 0.00143
-6.82 0.0014
-6.819 0.00138
-6.818 0.00135
-6.817 0.00133
-6.816 0.0013
-6.815 0.00128
-6.814 0.00125
-6.813 0.00123
-6.812 0.00119
-6.811 0.00117
-6.81 0.00115
-6.809 0.00113
-6.808 0.0011
-6.807 0.00108
-6.806 0.00106
-6.805 0.00104
-6.804 0.00102
-6.803 0.000997
-6.802 0.000977
-6.801 0.000957
-6.8 0.000937
-6.799 0.000918
-6.798 0.000899
-6.797 0.000881
-6.796 0.000863
-6.795 0.000845
-6.794 0.000827
-6.793 0.000811
-6.792 0.000794
-6.791 0.000778
-6.79 0.000761
-6.789 0.000746
-6.788 0.00073
-6.787 0.000716
-6.786 0.000701
-6.785 0.000686
-6.784 0.000672
-6.783 0.000658
-6.782 0.000644
-6.781 0.000631
-6.78 0.000617
-6.779 0.000605
-6.778 0.000592
-6.777 0.00058
-6.776 0.000567
-6.775 0.000556
-6.774 0.000544
-6.773 0.000533
-6.772 0.000521
-6.771 0.000511
-6.77 0.000499
-6.769 0.000489
-6.768 0.000478
-6.767 0.000469
-6.766 0.000459
-6.765 0.000449
-6.764 0.00044
-6.763 0.00043
-6.762 0.000421
-6.761 0.000413
-6.76 0.000403
-6.759 0.000395
-6.758 0.000387
-6.757 0.000378
-6.756 0.00037
-6.755 0.000363
-6.754 0.000354
-6.753 0.000347
-6.752 0.00034
-6.751 0.000333
-6.75 0.000325
-6.749 0.000318
-6.748 0.000312
-6.747 0.000305
-6.746 0.000298
-6.745 0.000292
-6.744 0.000286
-6.743 0.00028
-6.742 0.000273
-6.741 0.000268
-6.74 0.000262
-6.739 0.000257
-6.738 0.000252
-6.737 0.000245
-6.736 0.00024
-6.735 0.000235
-6.734 0.00023
-6.733 0.000226
-6.732 0.000221
-6.731 0.000215
-6.73 0.000211
-6.729 0.000207
-6.728 0.000202
-6.727 0.000198
-6.726 0.000194
-6.725 0.00019
-6.724 0.000186
-6.723 0.000181
-6.722 0.000177
-6.721 0.000174
-6.72 0.00017
-6.719 0.000167
-6.718 0.000163
-6.717 0.00016
-6.716 0.000157
-6.715 0.000153
-6.714 0.00015
-6.713 0.000147
-6.712 0.000144
-6.711 0.000141
-6.71 0.000138
-6.709 0.000135
-6.708 0.000133
-6.707 0.00013
-6.706 0.000127
-6.705 0.000125
-6.704 0.000122
-6.703 0.00012
-6.702 0.000117
-6.701 0.000115
-6.7 0.000113
-6.699 0.00011
-6.698 0.000108
-6.697 0.000106
-6.696 0.000104
-6.695 0.000102
-6.694 0.0001
-6.693 9.81e-05
-6.692 9.63e-05
-6.691 9.45e-05
-6.69 9.27e-05
-6.689 9.1e-05
-6.688 8.93e-05
-6.687 8.77e-05
-6.686 8.62e-05
-6.685 8.46e-05
-6.684 8.32e-05
-6.683 8.18e-05
-6.682 8.04e-05
-6.681 7.9e-05
-6.68 7.77e-05
-6.679 7.64e-05
-6.678 7.52e-05
-6.677 7.41e-05
-6.676 7.29e-05
-6.675 7.18e-05
-6.674 7.08e-05
-6.673 6.96e-05
-6.672 6.86e-05
-6.671 6.77e-05
-6.67 6.67e-05
-6.669 6.58e-05
-6.668 6.5e-05
-6.667 6.41e-05
-6.666 6.33e-05
-6.665 6.26e-05
-6.664 6.18e-05
-6.663 6.12e-05
-6.662 6.05e-05
-6.661 5.99e-05
-6.66 5.93e-05
-6.659 5.86e-05
-6.658 5.81e-05
-6.657 5.76e-05
-6.656 5.71e-05
-6.655 5.66e-05
-6.654 5.62e-05
-6.653 5.58e-05
-6.652 5.53e-05
-6.651 5.5e-05
-6.65 5.46e-05
-6.649 5.42e-05
-6.648 5.41e-05
-6.647 5.38e-05
-6.646 5.36e-05
-6.645 5.34e-05
-6.644 5.33e-05
-6.643 5.3e-05
-6.642 5.3e-05
-6.641 5.28e-05
-6.64 5.27e-05
-6.639 5.27e-05
-6.638 5.27e-05
-6.637 5.27e-05
-6.636 5.27e-05
-6.635 5.27e-05
-6.634 5.28e-05
-6.633 5.28e-05
-6.632 5.31e-05
-6.631 5.32e-05
-6.63 5.33e-05
-6.629 5.35e-05
-6.628 5.37e-05
-6.627 5.4e-05
-6.626 5.43e-05
-6.625 5.45e-05
-6.624 5.47e-05
-6.623 5.5e-05
-6.622 5.54e-05
-6.621 5.58e-05
-6.62 5.62e-05
-6.619 5.66e-05
-6.618 5.71e-05
-6.617 5.76e-05
-6.616 5.8e-05
-6.615 5.85e-05
-6.614 5.9e-05
-6.613 5.96e-05
-6.612 6.01e-05
-6.611 6.08e-05
-6.61 6.14e-05
-6.609 6.2e-05
-6.608 6.26e-05
-6.607 6.34e-05
-6.606 6.41e-05
-6.605 6.49e-05
-6.604 6.56e-05
-6.603 6.64e-05
-6.602 6.73e-05
-6.601 6.8e-05
-6.6 6.89e-05
-6.599 6.98e-05
-6.598 7.06e-05
-6.597 7.17e-05
-6.596 7.25e-05
-6.595 7.35e-05
-6.594 7.45e-05
-6.593 7.55e-05
-6.592 7.66e-05
-6.591 7.77e-05
-6.59 7.87e-05
-6.589 8e-05
-6.588 8.12e-05
-6.587 8.23e-05
-6.586 8.35e-05
-6.585 8.48e-05
-6.584 8.61e-05
-6.583 8.73e-05
-6.582 8.87e-05
-6.581 9e-05
-6.58 9.13e-05
-6.579 9.27e-05
-6.578 9.42e-05
-6.577 9.58e-05
-6.576 9.72e-05
-6.575 9.87e-05
-6.574 0.0001
-6.573 0.000102
-6.572 0.000103
-6.571 0.000105
-6.57 0.000107
-6.569 0.000109
-6.568 0.00011
-6.567 0.000112
-6.566 0.000114
-6.565 0.000116
-6.564 0.000118
-6.563 0.000119
-6.562 0.000122
-6.561 0.000123
-6.56 0.000125
-6.559 0.000127
-6.558 0.00013
-6.557 0.000132
-6.556 0.000134
-6.555 0.000136
-6.554 0.000138
-6.553 0.000141
-6.552 0.000143
-6.551 0.000145
-6.55 0.000148
-6.549 0.00015
-6.548 0.000153
-6.547 0.000155
-6.546 0.000158
-6.545 0.00016
-6.544 0.000163
-6.543 0.000166
-6.542 0.000168
-6.541 0.000171
-6.54 0.000174
-6.539 0.000177
-6.538 0.000179
-6.537 0.000183
-6.536 0.000186
-6.535 0.000189
-6.534 0.000191
-6.533 0.000195
-6.532 0.000198
-6.531 0.000202
-6.53 0.000205
-6.529 0.000208
-6.528 0.000212
-6.527 0.000215
-6.526 0.000219
-6.525 0.000222
-6.524 0.000226
-6.523 0.00023
-6.522 0.000233
-6.521 0.000237
-6.52 0.00024
-6.519 0.000244
-6.518 0.000249
-6.517 0.000253
-6.516 0.000256
-6.515 0.000261
-6.514 0.000265
-6.513 0.00027
-6.512 0.000273
-6.511 0.000278
-6.51 0.000282
-6.509 0.000287
-6.508 0.000291
-6.507 0.000296
-6.506 0.000301
-6.505 0.000305
-6.504 0.00031
-6.503 0.000315
-6.502 0.000321
-6.501 0.000326
-6.5 0.000331
-6.499 0.000336
-6.498 0.000342
-6.497 0.000347
-6.496 0.000352
-6.495 0.000358
-6.494 0.000363
-6.493 0.000368
-6.492 0.000375
-6.491 0.000381
-6.49 0.000386
-6.489 0.000393
-6.488 0.000398
-6.487 0.000405
-6.486 0.000411
-6.485 0.000417
-6.484 0.000424
-6.483 0.00043
-6.482 0.000437
-6.481 0.000444
-6.48 0.000451
-6.479 0.000457
-6.478 0.000465
-6.477 0.000472
-6.476 0.000479
-6.475 0.000486
-6.474 0.000493
-6.473 0.000501
-6.472 0.000508
-6.471 0.000516
-6.47 0.000524
-6.469 0.000532
-6.468 0.00054
-6.467 0.000547
-6.466 0.000556
-6.465 0.000565
-6.464 0.000573
-6.463 0.000582
-6.462 0.000591
-6.461 0.0006
-6.46 0.000608
-6.459 0.000617
-6.458 0.000625
-6.457 0.000635
-6.456 0.000645
-6.455 0.000654
-6.454 0.000664
-6.453 0.000674
-6.452 0.000683
-6.451 0.000693
-6.45 0.000703
-6.449 0.000714
-6.448 0.000723
-6.447 0.000735
-6.446 0.000746
-6.445 0.000756
-6.444 0.000766
-6.443 0.000779
-6.442 0.000789
-6.441 0.000801
-6.44 0.000812
-6.439 0.000824
-6.438 0.000835
-6.437 0.000847
-6.436 0.000859
-6.435 0.000872
-6.434 0.000884
-6.433 0.000896
-6.432 0.00091
-6.431 0.000922
-6.43 0.000934
-6.429 0.000948
-6.428 0.000962
-6.427 0.000976
-6.426 0.000989
-6.425 0.001
-6.424 0.00102
-6.423 0.00103
-6.422 0.00104
-6.421 0.00106
-6.42 0.00107
-6.419 0.00109
-6.418 0.0011
-6.417 0.00112
-6.416 0.00113
-6.415 0.00115
-6.414 0.00117
-6.413 0.00118
-6.412 0.0012
-6.411 0.00121
-6.41 0.00123
-6.409 0.00125
-6.408 0.00126
-6.407 0.00128
-6.406 0.0013
-6.405 0.00132
-6.404 0.00133
-6.403 0.00135
-6.402 0.00137
-6.401 0.00139
-6.4 0.00141
-6.399 0.00143
-6.398 0.00144
-6.397 0.00146
-6.396 0.00148
-6.395 0.0015
-6.394 0.00152
-6.393 0.00154
-6.392 0.00156
-6.391 0.00158
-6.39 0.0016
-6.389 0.00162
-6.388 0.00164
-6.387 0.00166
-6.386 0.00169
-6.385 0.00171
-6.384 0.00173
-6.383 0.00175
-6.382 0.00178
-6.381 0.0018
-6.38 0.00182
-6.379 0.00184
-6.378 0.00187
-6.377 0.00189
-6.376 0.00192
-6.375 0.00195
-6.374 0.00197
-6.373 0.00199
-6.372 0.00202
-6.371 0.00204
-6.37 0.00207
-6.369 0.00209
-6.368 0.00212
-6.367 0.00214
-6.366 0.00217
-6.365 0.0022
-6.364 0.00223
-6.363 0.00225
-6.362 0.00228
-6.361 0.00231
-6.36 0.00234
-6.359 0.00237
-6.358 0.0024
-6.357 0.00242
-6.356 0.00246
-6.355 0.00249
-6.354 0.00251
-6.353 0.00254
-6.352 0.00258
-6.351 0.00261
-6.35 0.00263
-6.349 0.00267
-6.348 0.0027
-6.347 0.00273
-6.346 0.00277
-6.345 0.0028
-6.344 0.00284
-6.343 0.00287
-6.342 0.0029
-6.341 0.00293
-6.34 0.00297
-6.339 0.003
-6.338 0.00304
-6.337 0.00307
-6.336 0.00311
-6.335 0.00315
-6.334 0.00319
-6.333 0.00322
-6.332 0.00326
-6.331 0.0033
-6.33 0.00333
-6.329 0.00337
-6.328 0.00342
-6.327 0.00345
-6.326 0.00349
-6.325 0.00353
-6.324 0.00357
-6.323 0.00361
-6.322 0.00365
-6.321 0.0037
-6.32 0.00373
-6.319 0.00377
-6.318 0.00382
-6.317 0.00386
-6.316 0.00391
-6.315 0.00395
-6.314 0.004
-6.313 0.00403
-6.312 0.00408
-6.311 0.00412
-6.31 0.00417
-6.309 0.00422
-6.308 0.00426
-6.307 0.00431
-6.306 0.00436
-6.305 0.0044
-6.304 0.00445
-6.303 0.0045
-6.302 0.00455
-6.301 0.0046
-6.3 0.00465
-6.299 0.0047
-6.298 0.00475
-6.297 0.00481
-6.296 0.00486
-6.295 0.00491
-6.294 0.00495
-6.293 0.005
-6.292 0.00505
-6.291 0.00512
-6.29 0.00517
-6.289 0.00523
-6.288 0.00528
-6.287 0.00533
-6.286 0.00539
-6.285 0.00544
-6.284 0.0055
-6.283 0.00556
-6.282 0.00561
-6.281 0.00567
-6.28 0.00574
-6.279 0.00579
-6.278 0.00585
-6.277 0.00592
-6.276 0.00597
-6.275 0.00602
-6.274 0.0061
-6.273 0.00615
-6.272 0.00621
-6.271 0.00628
-6.27 0.00634
-6.269 0.00641
-6.268 0.00647
-6.267 0.00653
-6.266 0.0066
-6.265 0.00666
-6.264 0.00673
-6.263 0.0068
-6.262 0.00686
-6.261 0.00693
-6.26 0.00699
-6.259 0.00707
-6.258 0.00713
-6.257 0.00721
-6.256 0.00728
-6.255 0.00735
-6.254 0.00742
-6.253 0.00749
-6.252 0.00756
-6.251 0.00764
-6.25 0.00771
-6.249 0.00778
-6.248 0.00786
-6.247 0.00791
-6.246 0.00799
-6.245 0.00808
-6.244 0.00814
-6.243 0.00822
-6.242 0.0083
-6.241 0.00838
-6.24 0.00845
-6.239 0.00854
-6.238 0.00862
-6.237 0.00869
-6.236 0.00877
-6.235 0.00885
-6.234 0.00895
-6.233 0.00903
-6.232 0.0091
-6.231 0.00919
-6.23 0.00927
-6.229 0.00936
-6.228 0.00944
-6.227 0.00951
-6.226 0.0096
-6.225 0.00969
-6.224 0.00978
-6.223 0.00987
-6.222 0.00996
-6.221 0.01
-6.22 0.0101
-6.219 0.0102
-6.218 0.0103
-6.217 0.0104
-6.216 0.0105
-6.215 0.0106
-6.214 0.0107
-6.213 0.0108
-6.212 0.0109
-6.211 0.011
-6.21 0.0111
-6.209 0.0111
-6.208 0.0112
-6.207 0.0113
-6.206 0.0114
-6.205 0.0115
-6.204 0.0116
-6.203 0.0117
-6.202 0.0118
-6.201 0.0119
-6.2 0.012
-6.199 0.0121
-6.198 0.0122
-6.197 0.0123
-6.196 0.0124
-6.195 0.0125
-6.194 0.0126
-6.193 0.0127
-6.192 0.0128
-6.191 0.0129
-6.19 0.013
-6.189 0.0132
-6.188 0.0133
-6.187 0.0134
-6.186 0.0135
-6.185 0.0136
-6.184 0.0137
-6.183 0.0138
-6.182 0.0139
-6.181 0.014
-6.18 0.0141
-6.179 0.0142
-6.178 0.0143
-6.177 0.0145
-6.176 0.0146
-6.175 0.0147
-6.174 0.0148
-6.173 0.0149
-6.172 0.015
-6.171 0.0151
-6.17 0.0153
-6.169 0.0154
-6.168 0.0155
-6.167 0.0156
-6.166 0.0157
-6.165 0.0159
-6.164 0.016
-6.163 0.0161
-6.162 0.0162
-6.161 0.0163
-6.16 0.0165
-6.159 0.0166
-6.158 0.0167
-6.157 0.0168
-6.156 0.017
-6.155 0.0171
-6.154 0.0172
-6.153 0.0173
-6.152 0.0175
-6.151 0.0176
-6.15 0.0177
-6.149 0.0178
-6.148 0.018
-6.147 0.0181
-6.146 0.0182
-6.145 0.0184
-6.144 0.0185
-6.143 0.0186
-6.142 0.0188
-6.141 0.0189
-6.14 0.019
-6.139 0.0192
-6.138 0.0192
-6.137 0.0194
-6.136 0.0196
-6.135 0.0197
-6.134 0.0198
-6.133 0.02
-6.132 0.0202
-6.131 0.0202
-6.13 0.0204
-6.129 0.0205
-6.128 0.0206
-6.127 0.0208
-6.126 0.021
-6.125 0.0211
-6.124 0.0212
-6.123 0.0214
-6.122 0.0216
-6.121 0.0216
-6.12 0.0218
-6.119 0.022
-6.118 0.0222
-6.117 0.0222
-6.116 0.0224
-6.115 0.0226
-6.114 0.0226
-6.113 0.0228
-6.112 0.023
-6.111 0.0232
-6.11 0.0232
-6.109 0.0234
-6.108 0.0236
-6.107 0.0238
-6.106 0.0239
-6.105 0.024
-6.104 0.0242
-6.103 0.0244
-6.102 0.0245
-6.101 0.0246
-6.1 0.0248
-6.099 0.0249
-6.098 0.0251
-6.097 0.0253
-6.096 0.0255
-6.095 0.0255
-6.094 0.0257
-6.093 0.0259
-6.092 0.0261
-6.091 0.0262
-6.09 0.0264
-6.089 0.0266
-6.088 0.0267
-6.087 0.0268
-6.086 0.027
-6.085 0.0272
-6.084 0.0274
-6.083 0.0275
-6.082 0.0277
-6.081 0.0279
-6.08 0.0281
-6.079 0.0281
-6.078 0.0283
-6.077 0.0285
-6.076 0.0287
-6.075 0.0288
-6.074 0.029
-6.073 0.0292
-6.072 0.0294
-6.071 0.0295
-6.07 0.0297
-6.069 0.0299
-6.068 0.0301
-6.067 0.0302
-6.066 0.0304
-6.065 0.0306
-6.064 0.0307
-6.063 0.0309
-6.062 0.0311
-6.061 0.0313
-6.06 0.0314
-6.059 0.0316
-6.058 0.0318
-6.057 0.032
-6.056 0.0321
-6.055 0.0323
-6.054 0.0325
-6.053 0.0327
-6.052 0.0328
-6.051 0.033
-6.05 0.0332
-6.049 0.0333
-6.048 0.0335
-6.047 0.0338
-6.046 0.034
-6.045 0.0341
-6.044 0.0343
-6.043 0.0345
-6.042 0.0347
-6.041 0.0348
-6.04 0.035
-6.039 0.0353
-6.038 0.0354
-6.037 0.0356
-6.036 0.0358
-6.035 0.0359
-6.034 0.0362
-6.033 0.0364
-6.032 0.0366
-6.031 0.0367
-6.03 0.0369
-6.029 0.0372
-6.028 0.0373
-6.027 0.0375
-6.026 0.0377
-6.025 0.0379
-6.024 0.0381
-6.023 0.0383
-6.022 0.0385
-6.021 0.0387
-6.02 0.0389
-6.019 0.039
-6.018 0.0393
-6.017 0.0395
-6.016 0.0396
-6.015 0.0399
-6.014 0.0401
-6.013 0.0402
-6.012 0.0405
-6.011 0.0407
-6.01 0.0409
-6.009 0.0411
-6.008 0.0413
-6.007 0.0415
-6.006 0.0417
-6.005 0.042
-6.004 0.0421
-6.003 0.0424
-6.002 0.0425
-6.001 0.0428
-6.0 0.043
-5.999 0.0431
-5.998 0.0434
-5.997 0.0436
-5.996 0.0438
-5.995 0.044
-5.994 0.0442
-5.993 0.0445
-5.992 0.0447
-5.991 0.0449
-5.99 0.0451
-5.989 0.0453
-5.988 0.0456
-5.987 0.0457
-5.986 0.046
-5.985 0.0462
-5.984 0.0464
-5.983 0.0467
-5.982 0.0468
-5.981 0.0472
-5.98 0.0473
-5.979 0.0475
-5.978 0.0478
-5.977 0.048
-5.976 0.0482
-5.975 0.0485
-5.974 0.0487
-5.973 0.0489
-5.972 0.0492
-5.971 0.0493
-5.97 0.0497
-5.969 0.0498
-5.968 0.0501
-5.967 0.0503
-5.966 0.0506
-5.965 0.0508
-5.964 0.0511
-5.963 0.0513
-5.962 0.0515
-5.961 0.0518
-5.96 0.052
-5.959 0.0522
-5.958 0.0525
-5.957 0.0528
-5.956 0.0529
-5.955 0.0532
-5.954 0.0535
-5.953 0.0537
-5.952 0.0539
-5.951 0.0542
-5.95 0.0545
-5.949 0.0547
-5.948 0.055
-5.947 0.0552
-5.946 0.0555
-5.945 0.0557
-5.944 0.056
-5.943 0.0563
-5.942 0.0565
-5.941 0.0569
-5.94 0.0571
-5.939 0.0573
-5.938 0.0576
-5.937 0.0579
-5.936 0.0581
-5.935 0.0584
-5.934 0.0587
-5.933 0.0589
-5.932 0.0592
-5.931 0.0594
-5.93 0.0596
-5.929 0.0601
-5.928 0.0603
-5.927 0.0605
-5.926 0.0608
-5.925 0.0611
-5.924 0.0614
-5.923 0.0618
-5.922 0.0621
-5.921 0.0623
-5.92 0.0625
-5.919 0.0629
-5.918 0.0631
-5.917 0.0634
-5.916 0.0637
-5.915 0.064
-5.914 0.0643
-5.913 0.0645
-5.912 0.0648
-5.911 0.0652
-5.91 0.0655
-5.909 0.0658
-5.908 0.066
-5.907 0.0665
-5.906 0.0668
-5.905 0.067
-5.904 0.0673
-5.903 0.0677
-5.902 0.068
-5.901 0.0684
-5.9 0.0686
-5.899 0.0689
-5.898 0.0692
-5.897 0.0695
-5.896 0.0698
-5.895 0.0703
-5.894 0.0706
-5.893 0.0709
-5.892 0.0712
-5.891 0.0715
-5.89 0.0718
-5.889 0.0721
-5.888 0.0725
-5.887 0.0728
-5.886 0.0732
-5.885 0.0736
-5.884 0.0739
-5.883 0.0742
-5.882 0.0745
-5.881 0.0749
-5.88 0.0752
-5.879 0.0755
-5.878 0.076
-5.877 0.0763
-5.876 0.0767
-5.875 0.0772
-5.874 0.0775
-5.873 0.0779
-5.872 0.0782
-5.871 0.0786
-5.87 0.079
-5.869 0.0793
-5.868 0.0797
-5.867 0.0801
-5.866 0.0804
-5.865 0.0808
-5.864 0.0812
-5.863 0.0815
-5.862 0.0819
-5.861 0.0823
-5.86 0.0828
-5.859 0.0832
-5.858 0.0836
-5.857 0.084
-5.856 0.0844
-5.855 0.0848
-5.854 0.0852
-5.853 0.0855
-5.852 0.0859
-5.851 0.0863
-5.85 0.0867
-5.849 0.0871
-5.848 0.0875
-5.847 0.088
-5.846 0.0884
-5.845 0.0888
-5.844 0.0893
-5.843 0.0897
-5.842 0.0901
-5.841 0.0905
-5.84 0.0909
-5.839 0.0914
-5.838 0.0918
-5.837 0.0923
-5.836 0.0927
-5.835 0.0932
-5.834 0.0936
-5.833 0.094
-5.832 0.0945
-5.831 0.0949
-5.83 0.0954
-5.829 0.0959
-5.828 0.0964
-5.827 0.0969
-5.826 0.0972
-5.825 0.0977
-5.824 0.0982
-5.823 0.0987
-5.822 0.0992
-5.821 0.0996
-5.82 0.1
-5.819 0.101
-5.818 0.101
-5.817 0.102
-5.816 0.102
-5.815 0.103
-5.814 0.103
-5.813 0.104
-5.812 0.104
-5.811 0.105
-5.81 0.105
-5.809 0.106
-5.808 0.106
-5.807 0.107
-5.806 0.107
-5.805 0.108
-5.804 0.108
-5.803 0.109
-5.802 0.109
-5.801 0.11
-5.8 0.11
-5.799 0.111
-5.798 0.111
-5.797 0.112
-5.796 0.112
-5.795 0.113
-5.794 0.114
-5.793 0.114
-5.792 0.115
-5.791 0.115
-5.79 0.116
-5.789 0.116
-5.788 0.117
-5.787 0.118
-5.786 0.118
-5.785 0.119
-5.784 0.119
-5.783 0.12
-5.782 0.12
-5.781 0.121
-5.78 0.122
-5.779 0.122
-5.778 0.123
-5.777 0.123
-5.776 0.124
-5.775 0.125
-5.774 0.125
-5.773 0.126
-5.772 0.126
-5.771 0.127
-5.77 0.128
-5.769 0.128
-5.768 0.129
-5.767 0.129
-5.766 0.13
-5.765 0.131
-5.764 0.131
-5.763 0.132
-5.762 0.133
-5.761 0.133
-5.76 0.134
-5.759 0.135
-5.758 0.135
-5.757 0.136
-5.756 0.136
-5.755 0.137
-5.754 0.138
-5.753 0.138
-5.752 0.139
-5.751 0.139
-5.75 0.14
-5.749 0.141
-5.748 0.141
-5.747 0.142
-5.746 0.143
-5.745 0.144
-5.744 0.144
-5.743 0.145
-5.742 0.146
-5.741 0.147
-5.74 0.147
-5.739 0.148
-5.738 0.149
-5.737 0.149
-5.736 0.15
-5.735 0.151
-5.734 0.152
-5.733 0.152
-5.732 0.153
-5.731 0.154
-5.73 0.154
-5.729 0.155
-5.728 0.155
-5.727 0.156
-5.726 0.157
-5.725 0.158
-5.724 0.158
-5.723 0.159
-5.722 0.16
-5.721 0.161
-5.72 0.161
-5.719 0.162
-5.718 0.163
-5.717 0.164
-5.716 0.165
-5.715 0.165
-5.714 0.166
-5.713 0.167
-5.712 0.168
-5.711 0.169
-5.71 0.169
-5.709 0.17
-5.708 0.171
-5.707 0.172
-5.706 0.173
-5.705 0.172
-5.704 0.173
-5.703 0.174
-5.702 0.175
-5.701 0.176
-5.7 0.176
-5.699 0.177
-5.698 0.178
-5.697 0.179
-5.696 0.18
-5.695 0.18
-5.694 0.181
-5.693 0.182
-5.692 0.183
-5.691 0.184
-5.69 0.185
-5.689 0.185
-5.688 0.186
-5.687 0.187
-5.686 0.188
-5.685 0.189
-5.684 0.19
-5.683 0.19
-5.682 0.191
-5.681 0.191
-5.68 0.192
-5.679 0.193
-5.678 0.194
-5.677 0.194
-5.676 0.195
-5.675 0.196
-5.674 0.197
-5.673 0.198
-5.672 0.199
-5.671 0.199
-5.67 0.2
-5.669 0.201
-5.668 0.202
-5.667 0.203
-5.666 0.204
-5.665 0.204
-5.664 0.205
-5.663 0.206
-5.662 0.207
-5.661 0.208
-5.66 0.209
-5.659 0.209
-5.658 0.21
-5.657 0.211
-5.656 0.212
-5.655 0.213
-5.654 0.213
-5.653 0.213
-5.652 0.214
-5.651 0.215
-5.65 0.216
-5.649 0.217
-5.648 0.218
-5.647 0.218
-5.646 0.219
-5.645 0.22
-5.644 0.221
-5.643 0.222
-5.642 0.223
-5.641 0.223
-5.64 0.224
-5.639 0.225
-5.638 0.226
-5.637 0.227
-5.636 0.228
-5.635 0.228
-5.634 0.229
-5.633 0.23
-5.632 0.231
-5.631 0.232
-5.63 0.233
-5.629 0.233
-5.628 0.234
-5.627 0.235
-5.626 0.236
-5.625 0.237
-5.624 0.237
-5.623 0.238
-5.622 0.239
-5.621 0.24
-5.62 0.241
-5.619 0.241
-5.618 0.242
-5.617 0.243
-5.616 0.244
-5.615 0.245
-5.614 0.245
-5.613 0.245
-5.612 0.246
-5.611 0.247
-5.61 0.248
-5.609 0.248
-5.608 0.249
-5.607 0.25
-5.606 0.251
-5.605 0.251
-5.604 0.252
-5.603 0.253
-5.602 0.254
-5.601 0.254
-5.6 0.255
-5.599 0.256
-5.598 0.257
-5.597 0.257
-5.596 0.258
-5.595 0.259
-5.594 0.26
-5.593 0.26
-5.592 0.261
-5.591 0.262
-5.59 0.263
-5.589 0.263
-5.588 0.264
-5.587 0.265
-5.586 0.265
-5.585 0.266
-5.584 0.267
-5.583 0.268
-5.582 0.268
-5.581 0.269
-5.58 0.27
-5.579 0.27
-5.578 0.271
-5.577 0.272
-5.576 0.272
-5.575 0.273
-5.574 0.274
-5.573 0.274
-5.572 0.275
-5.571 0.276
-5.57 0.276
-5.569 0.277
-5.568 0.278
-5.567 0.278
-5.566 0.279
-5.565 0.279
-5.564 0.28
-5.563 0.281
-5.562 0.281
-5.561 0.282
-5.56 0.283
-5.559 0.283
-5.558 0.284
-5.557 0.284
-5.556 0.285
-5.555 0.285
-5.554 0.286
-5.553 0.287
-5.552 0.287
-5.551 0.288
-5.55 0.288
-5.549 0.289
-5.548 0.289
-5.547 0.29
-5.546 0.291
-5.545 0.291
-5.544 0.292
-5.543 0.292
-5.542 0.293
-5.541 0.293
-5.54 0.294
-5.539 0.294
-5.538 0.295
-5.537 0.295
-5.536 0.296
-5.535 0.296
-5.534 0.297
-5.533 0.297
-5.532 0.297
-5.531 0.298
-5.53 0.298
-5.529 0.299
-5.528 0.299
-5.527 0.3
-5.526 0.3
-5.525 0.301
-5.524 0.301
-5.523 0.301
-5.522 0.302
-5.521 0.302
-5.52 0.303
-5.519 0.303
-5.518 0.303
-5.517 0.304
-5.516 0.304
-5.515 0.304
-5.514 0.305
-5.513 0.305
-5.512 0.306
-5.511 0.306
-5.51 0.306
-5.509 0.307
-5.508 0.307
-5.507 0.307
-5.506 0.307
-5.505 0.308
-5.504 0.308
-5.503 0.308
-5.502 0.309
-5.501 0.309
-5.5 0.309
-5.499 0.309
-5.498 0.31
-5.497 0.31
-5.496 0.31
-5.495 0.31
-5.494 0.311
-5.493 0.311
-5.492 0.311
-5.491 0.311
-5.49 0.312
-5.489 0.312
-5.488 0.312
-5.487 0.312
-5.486 0.312
-5.485 0.312
-5.484 0.313
-5.483 0.313
-5.482 0.313
-5.481 0.313
-5.48 0.313
-5.479 0.313
-5.478 0.313
-5.477 0.314
-5.476 0.314
-5.475 0.314
-5.474 0.314
-5.473 0.314
-5.472 0.314
-5.471 0.314
-5.47 0.314
-5.469 0.314
-5.468 0.314
-5.467 0.314
-5.466 0.314
-5.465 0.314
-5.464 0.315
-5.463 0.315
-5.462 0.315
-5.461 0.315
-5.46 0.315
-5.459 0.315
-5.458 0.315
-5.457 0.315
-5.456 0.315
-5.455 0.314
-5.454 0.314
-5.453 0.314
-5.452 0.314
-5.451 0.314
-5.45 0.314
-5.449 0.314
-5.448 0.314
-5.447 0.314
-5.446 0.314
-5.445 0.314
-5.444 0.314
-5.443 0.314
-5.442 0.313
-5.441 0.313
-5.44 0.314
-5.439 0.314
-5.438 0.314
-5.437 0.314
-5.436 0.314
-5.435 0.313
-5.434 0.313
-5.433 0.313
-5.432 0.313
-5.431 0.313
-5.43 0.313
-5.429 0.312
-5.428 0.312
-5.427 0.312
-5.426 0.312
-5.425 0.312
-5.424 0.311
-5.423 0.311
-5.422 0.311
-5.421 0.311
-5.42 0.31
-5.419 0.31
-5.418 0.31
-5.417 0.309
-5.416 0.309
-5.415 0.309
-5.414 0.309
-5.413 0.308
-5.412 0.308
-5.411 0.308
-5.41 0.307
-5.409 0.307
-5.408 0.307
-5.407 0.306
-5.406 0.306
-5.405 0.306
-5.404 0.305
-5.403 0.305
-5.402 0.305
-5.401 0.304
-5.4 0.304
-5.399 0.303
-5.398 0.303
-5.397 0.303
-5.396 0.302
-5.395 0.302
-5.394 0.301
-5.393 0.301
-5.392 0.302
-5.391 0.301
-5.39 0.301
-5.389 0.3
-5.388 0.3
-5.387 0.299
-5.386 0.299
-5.385 0.298
-5.384 0.298
-5.383 0.297
-5.382 0.297
-5.381 0.296
-5.38 0.296
-5.379 0.295
-5.378 0.295
-5.377 0.294
-5.376 0.294
-5.375 0.293
-5.374 0.293
-5.373 0.292
-5.372 0.292
-5.371 0.291
-5.37 0.291
-5.369 0.29
-5.368 0.29
-5.367 0.289
-5.366 0.289
-5.365 0.288
-5.364 0.287
-5.363 0.287
-5.362 0.286
-5.361 0.286
-5.36 0.286
-5.359 0.286
-5.358 0.285
-5.357 0.284
-5.356 0.284
-5.355 0.283
-5.354 0.283
-5.353 0.282
-5.352 0.281
-5.351 0.281
-5.35 0.28
-5.349 0.279
-5.348 0.279
-5.347 0.278
-5.346 0.278
-5.345 0.277
-5.344 0.276
-5.343 0.276
-5.342 0.275
-5.341 0.274
-5.34 0.274
-5.339 0.273
-5.338 0.272
-5.337 0.272
-5.336 0.272
-5.335 0.271
-5.334 0.271
-5.333 0.27
-5.332 0.269
-5.331 0.268
-5.33 0.268
-5.329 0.267
-5.328 0.266
-5.327 0.266
-5.326 0.265
-5.325 0.264
-5.324 0.264
-5.323 0.263
-5.322 0.262
-5.321 0.261
-5.32 0.261
-5.319 0.26
-5.318 0.26
-5.317 0.259
-5.316 0.259
-5.315 0.258
-5.314 0.257
-5.313 0.257
-5.312 0.256
-5.311 0.255
-5.31 0.254
-5.309 0.254
-5.308 0.253
-5.307 0.252
-5.306 0.251
-5.305 0.25
-5.304 0.25
-5.303 0.249
-5.302 0.248
-5.301 0.248
-5.3 0.248
-5.299 0.247
-5.298 0.246
-5.297 0.245
-5.296 0.245
-5.295 0.244
-5.294 0.243
-5.293 0.242
-5.292 0.241
-5.291 0.241
-5.29 0.24
-5.289 0.239
-5.288 0.239
-5.287 0.239
-5.286 0.238
-5.285 0.237
-5.284 0.236
-5.283 0.235
-5.282 0.235
-5.281 0.234
-5.28 0.233
-5.279 0.232
-5.278 0.232
-5.277 0.231
-5.276 0.23
-5.275 0.23
-5.274 0.229
-5.273 0.229
-5.272 0.228
-5.271 0.227
-5.27 0.226
-5.269 0.225
-5.268 0.225
-5.267 0.224
-5.266 0.223
-5.265 0.222
-5.264 0.221
-5.263 0.222
-5.262 0.221
-5.261 0.22
-5.26 0.219
-5.259 0.218
-5.258 0.218
-5.257 0.217
-5.256 0.216
-5.255 0.215
-5.254 0.214
-5.253 0.215
-5.252 0.214
-5.251 0.213
-5.25 0.212
-5.249 0.211
-5.248 0.211
-5.247 0.21
-5.246 0.209
-5.245 0.208
-5.244 0.209
-5.243 0.208
-5.242 0.207
-5.241 0.206
-5.24 0.205
-5.239 0.205
-5.238 0.204
-5.237 0.203
-5.236 0.202
-5.235 0.202
-5.234 0.202
-5.233 0.201
-5.232 0.2
-5.231 0.199
-5.23 0.199
-5.229 0.198
-5.228 0.197
-5.227 0.196
-5.226 0.196
-5.225 0.196
-5.224 0.195
-5.223 0.194
-5.222 0.193
-5.221 0.193
-5.22 0.192
-5.219 0.191
-5.218 0.191
-5.217 0.191
-5.216 0.19
-5.215 0.189
-5.214 0.188
-5.213 0.188
-5.212 0.187
-5.211 0.186
-5.21 0.186
-5.209 0.186
-5.208 0.185
-5.207 0.184
-5.206 0.183
-5.205 0.183
-5.204 0.182
-5.203 0.182
-5.202 0.182
-5.201 0.181
-5.2 0.18
-5.199 0.179
-5.198 0.179
-5.197 0.178
-5.196 0.177
-5.195 0.178
-5.194 0.177
-5.193 0.176
-5.192 0.175
-5.191 0.175
-5.19 0.174
-5.189 0.174
-5.188 0.174
-5.187 0.173
-5.186 0.172
-5.185 0.172
-5.184 0.171
-5.183 0.17
-5.182 0.169
-5.181 0.17
-5.18 0.169
-5.179 0.168
-5.178 0.168
-5.177 0.167
-5.176 0.166
-5.175 0.167
-5.174 0.166
-5.173 0.165
-5.172 0.165
-5.171 0.164
-5.17 0.163
-5.169 0.164
-5.168 0.163
-5.167 0.163
-5.166 0.162
-5.165 0.161
-5.164 0.161
-5.163 0.161
-5.162 0.16
-5.161 0.16
-5.16 0.159
-5.159 0.158
-5.158 0.158
-5.157 0.158
-5.156 0.158
-5.155 0.157
-5.154 0.156
-5.153 0.156
-5.152 0.156
-5.151 0.155
-5.15 0.155
-5.149 0.154
-5.148 0.154
-5.147 0.153
-5.146 0.153
-5.145 0.153
-5.144 0.152
-5.143 0.152
-5.142 0.151
-5.141 0.151
-5.14 0.151
-5.139 0.15
-5.138 0.15
-5.137 0.15
-5.136 0.149
-5.135 0.149
-5.134 0.148
-5.133 0.148
-5.132 0.148
-5.131 0.147
-5.13 0.147
-5.129 0.147
-5.128 0.146
-5.127 0.146
-5.126 0.146
-5.125 0.145
-5.124 0.145
-5.123 0.145
-5.122 0.144
-5.121 0.144
-5.12 0.144
-5.119 0.143
-5.118 0.143
-5.117 0.143
-5.116 0.142
-5.115 0.142
-5.114 0.142
-5.113 0.141
-5.112 0.141
-5.111 0.141
-5.11 0.141
-5.109 0.14
-5.108 0.14
-5.107 0.14
-5.106 0.14
-5.105 0.139
-5.104 0.139
-5.103 0.139
-5.102 0.138
-5.101 0.138
-5.1 0.138
-5.099 0.138
-5.098 0.137
-5.097 0.137
-5.096 0.137
-5.095 0.137
-5.094 0.137
-5.093 0.136
-5.092 0.136
-5.091 0.136
-5.09 0.136
-5.089 0.135
-5.088 0.135
-5.087 0.135
-5.086 0.135
-5.085 0.135
-5.084 0.135
-5.083 0.134
-5.082 0.134
-5.081 0.134
-5.08 0.134
-5.079 0.134
-5.078 0.133
-5.077 0.133
-5.076 0.133
-5.075 0.133
-5.074 0.133
-5.073 0.133
-5.072 0.133
-5.071 0.132
-5.07 0.132
-5.069 0.132
-5.068 0.132
-5.067 0.132
-5.066 0.132
-5.065 0.131
-5.064 0.131
-5.063 0.131
-5.062 0.131
-5.061 0.131
-5.06 0.131
-5.059 0.131
-5.058 0.131
-5.057 0.13
-5.056 0.13
-5.055 0.13
-5.054 0.13
-5.053 0.13
-5.052 0.13
-5.051 0.13
-5.05 0.13
-5.049 0.13
-5.048 0.13
-5.047 0.129
-5.046 0.129
-5.045 0.129
-5.044 0.129
-5.043 0.129
-5.042 0.129
-5.041 0.129
-5.04 0.129
-5.039 0.129
-5.038 0.129
-5.037 0.129
-5.036 0.129
-5.035 0.129
-5.034 0.129
-5.033 0.129
-5.032 0.129
-5.031 0.128
-5.03 0.128
-5.029 0.128
-5.028 0.128
-5.027 0.129
-5.026 0.128
-5.025 0.128
-5.024 0.128
-5.023 0.128
-5.022 0.128
-5.021 0.128
-5.02 0.128
-5.019 0.128
-5.018 0.128
-5.017 0.128
-5.016 0.128
-5.015 0.128
-5.014 0.128
-5.013 0.128
-5.012 0.128
-5.011 0.128
-5.01 0.128
-5.009 0.128
-5.008 0.128
-5.007 0.128
-5.006 0.128
-5.005 0.128
-5.004 0.128
-5.003 0.128
-5.002 0.128
-5.001 0.129
-5.0 0.129
-4.999 0.129
-4.998 0.129
-4.997 0.129
-4.996 0.129
-4.995 0.129
-4.994 0.129
-4.993 0.129
-4.992 0.129
-4.991 0.129
-4.99 0.129
-4.989 0.129
-4.988 0.129
-4.987 0.129
-4.986 0.129
-4.985 0.129
-4.984 0.129
-4.983 0.129
-4.982 0.129
-4.981 0.13
-4.98 0.13
-4.979 0.13
-4.978 0.13
-4.977 0.13
-4.976 0.13
-4.975 0.13
-4.974 0.13
-4.973 0.13
-4.972 0.13
-4.971 0.13
-4.97 0.13
-4.969 0.13
-4.968 0.131
-4.967 0.131
-4.966 0.131
-4.965 0.131
-4.964 0.131
-4.963 0.131
-4.962 0.131
-4.961 0.131
-4.96 0.131
-4.959 0.131
-4.958 0.132
-4.957 0.132
-4.956 0.132
-4.955 0.132
-4.954 0.132
-4.953 0.132
-4.952 0.132
-4.951 0.133
-4.95 0.133
-4.949 0.133
-4.948 0.133
-4.947 0.133
-4.946 0.133
-4.945 0.133
-4.944 0.133
-4.943 0.134
-4.942 0.134
-4.941 0.134
-4.94 0.134
-4.939 0.134
-4.938 0.134
-4.937 0.134
-4.936 0.135
-4.935 0.135
-4.934 0.135
-4.933 0.135
-4.932 0.135
-4.931 0.135
-4.93 0.135
-4.929 0.135
-4.928 0.136
-4.927 0.136
-4.926 0.136
-4.925 0.136
-4.924 0.136
-4.923 0.136
-4.922 0.137
-4.921 0.137
-4.92 0.137
-4.919 0.137
-4.918 0.137
-4.917 0.137
-4.916 0.138
-4.915 0.138
-4.914 0.138
-4.913 0.138
-4.912 0.138
-4.911 0.138
-4.91 0.139
-4.909 0.139
-4.908 0.139
-4.907 0.139
-4.906 0.139
-4.905 0.139
-4.904 0.14
-4.903 0.14
-4.902 0.14
-4.901 0.14
-4.9 0.14
-4.899 0.14
-4.898 0.141
-4.897 0.141
-4.896 0.141
-4.895 0.141
-4.894 0.141
-4.893 0.142
-4.892 0.142
-4.891 0.142
-4.89 0.142
-4.889 0.143
-4.888 0.143
-4.887 0.143
-4.886 0.143
-4.885 0.143
-4.884 0.144
-4.883 0.144
-4.882 0.144
-4.881 0.144
-4.88 0.144
-4.879 0.144
-4.878 0.145
-4.877 0.145
-4.876 0.145
-4.875 0.145
-4.874 0.145
-4.873 0.146
-4.872 0.146
-4.871 0.146
-4.87 0.146
-4.869 0.146
-4.868 0.147
-4.867 0.147
-4.866 0.147
-4.865 0.147
-4.864 0.147
-4.863 0.148
-4.862 0.148
-4.861 0.148
-4.86 0.148
-4.859 0.148
-4.858 0.149
-4.857 0.149
-4.856 0.149
-4.855 0.149
-4.854 0.15
-4.853 0.15
-4.852 0.15
-4.851 0.15
-4.85 0.15
-4.849 0.151
-4.848 0.151
-4.847 0.151
-4.846 0.151
-4.845 0.152
-4.844 0.152
-4.843 0.152
-4.842 0.152
-4.841 0.152
-4.84 0.153
-4.839 0.153
-4.838 0.153
-4.837 0.153
-4.836 0.154
-4.835 0.154
-4.834 0.154
-4.833 0.154
-4.832 0.154
-4.831 0.155
-4.83 0.155
-4.829 0.155
-4.828 0.155
-4.827 0.155
-4.826 0.156
-4.825 0.156
-4.824 0.156
-4.823 0.156
-4.822 0.157
-4.821 0.157
-4.82 0.157
-4.819 0.157
-4.818 0.157
-4.817 0.158
-4.816 0.158
-4.815 0.158
-4.814 0.158
-4.813 0.159
-4.812 0.159
-4.811 0.159
-4.81 0.159
-4.809 0.16
-4.808 0.16
-4.807 0.16
-4.806 0.16
-4.805 0.161
-4.804 0.161
-4.803 0.161
-4.802 0.161
-4.801 0.161
-4.8 0.162
-4.799 0.162
-4.798 0.162
-4.797 0.162
-4.796 0.162
-4.795 0.163
-4.794 0.163
-4.793 0.163
-4.792 0.163
-4.791 0.164
-4.79 0.164
-4.789 0.164
-4.788 0.164
-4.787 0.165
-4.786 0.165
-4.785 0.165
-4.784 0.165
-4.783 0.165
-4.782 0.166
-4.781 0.166
-4.78 0.166
-4.779 0.166
-4.778 0.167
-4.777 0.167
-4.776 0.167
-4.775 0.167
-4.774 0.168
-4.773 0.168
-4.772 0.168
-4.771 0.168
-4.77 0.168
-4.769 0.169
-4.768 0.169
-4.767 0.169
-4.766 0.169
-4.765 0.17
-4.764 0.17
-4.763 0.17
-4.762 0.17
-4.761 0.171
-4.76 0.171
-4.759 0.171
-4.758 0.171
-4.757 0.171
-4.756 0.172
-4.755 0.172
-4.754 0.172
-4.753 0.172
-4.752 0.173
-4.751 0.173
-4.75 0.173
-4.749 0.173
-4.748 0.173
-4.747 0.174
-4.746 0.174
-4.745 0.174
-4.744 0.174
-4.743 0.175
-4.742 0.175
-4.741 0.175
-4.74 0.175
-4.739 0.175
-4.738 0.176
-4.737 0.176
-4.736 0.176
-4.735 0.176
-4.734 0.177
-4.733 0.177
-4.732 0.177
-4.731 0.177
-4.73 0.177
-4.729 0.178
-4.728 0.178
-4.727 0.178
-4.726 0.178
-4.725 0.179
-4.724 0.179
-4.723 0.179
-4.722 0.179
-4.721 0.179
-4.72 0.18
-4.719 0.18
-4.718 0.18
-4.717 0.18
-4.716 0.18
-4.715 0.181
-4.714 0.181
-4.713 0.181
-4.712 0.181
-4.711 0.182
-4.71 0.182
-4.709 0.182
-4.708 0.182
-4.707 0.182
-4.706 0.183
-4.705 0.183
-4.704 0.183
-4.703 0.183
-4.702 0.183
-4.701 0.184
-4.7 0.184
-4.699 0.184
-4.698 0.184
-4.697 0.184
-4.696 0.185
-4.695 0.185
-4.694 0.185
-4.693 0.185
-4.692 0.185
-4.691 0.186
-4.69 0.186
-4.689 0.186
-4.688 0.186
-4.687 0.186
-4.686 0.187
-4.685 0.187
-4.684 0.187
-4.683 0.187
-4.682 0.187
-4.681 0.188
-4.68 0.188
-4.679 0.188
-4.678 0.188
-4.677 0.188
-4.676 0.189
-4.675 0.189
-4.674 0.189
-4.673 0.189
-4.672 0.189
-4.671 0.189
-4.67 0.19
-4.669 0.19
-4.668 0.19
-4.667 0.19
-4.666 0.19
-4.665 0.191
-4.664 0.191
-4.663 0.191
-4.662 0.191
-4.661 0.191
-4.66 0.192
-4.659 0.192
-4.658 0.192
-4.657 0.192
-4.656 0.192
-4.655 0.192
-4.654 0.193
-4.653 0.193
-4.652 0.193
-4.651 0.193
-4.65 0.193
-4.649 0.193
-4.648 0.194
-4.647 0.194
-4.646 0.194
-4.645 0.194
-4.644 0.194
-4.643 0.194
-4.642 0.195
-4.641 0.195
-4.64 0.195
-4.639 0.195
-4.638 0.195
-4.637 0.196
-4.636 0.196
-4.635 0.196
-4.634 0.196
-4.633 0.196
-4.632 0.196
-4.631 0.196
-4.63 0.197
-4.629 0.197
-4.628 0.197
-4.627 0.197
-4.626 0.197
-4.625 0.198
-4.624 0.198
-4.623 0.198
-4.622 0.198
-4.621 0.198
-4.62 0.198
-4.619 0.198
-4.618 0.199
-4.617 0.199
-4.616 0.199
-4.615 0.199
-4.614 0.199
-4.613 0.199
-4.612 0.199
-4.611 0.2
-4.61 0.2
-4.609 0.2
-4.608 0.2
-4.607 0.2
-4.606 0.2
-4.605 0.2
-4.604 0.201
-4.603 0.201
-4.602 0.201
-4.601 0.201
-4.6 0.201
-4.599 0.201
-4.598 0.202
-4.597 0.202
-4.596 0.202
-4.595 0.202
-4.594 0.202
-4.593 0.202
-4.592 0.202
-4.591 0.203
-4.59 0.203
-4.589 0.203
-4.588 0.203
-4.587 0.203
-4.586 0.203
-4.585 0.203
-4.584 0.203
-4.583 0.204
-4.582 0.204
-4.581 0.204
-4.58 0.204
-4.579 0.204
-4.578 0.204
-4.577 0.204
-4.576 0.205
-4.575 0.205
-4.574 0.205
-4.573 0.205
-4.572 0.205
-4.571 0.205
-4.57 0.205
-4.569 0.205
-4.568 0.206
-4.567 0.206
-4.566 0.206
-4.565 0.206
-4.564 0.206
-4.563 0.206
-4.562 0.206
-4.561 0.206
-4.56 0.207
-4.559 0.207
-4.558 0.207
-4.557 0.207
-4.556 0.207
-4.555 0.207
-4.554 0.207
-4.553 0.207
-4.552 0.207
-4.551 0.208
-4.55 0.208
-4.549 0.208
-4.548 0.208
-4.547 0.208
-4.546 0.208
-4.545 0.208
-4.544 0.208
-4.543 0.209
-4.542 0.209
-4.541 0.209
-4.54 0.209
-4.539 0.209
-4.538 0.209
-4.537 0.209
-4.536 0.209
-4.535 0.209
-4.534 0.21
-4.533 0.21
-4.532 0.21
-4.531 0.21
-4.53 0.21
-4.529 0.21
-4.528 0.21
-4.527 0.21
-4.526 0.21
-4.525 0.211
-4.524 0.211
-4.523 0.211
-4.522 0.211
-4.521 0.211
-4.52 0.211
-4.519 0.211
-4.518 0.211
-4.517 0.212
-4.516 0.212
-4.515 0.212
-4.514 0.212
-4.513 0.212
-4.512 0.212
-4.511 0.212
-4.51 0.212
-4.509 0.212
-4.508 0.213
-4.507 0.213
-4.506 0.213
-4.505 0.213
-4.504 0.213
-4.503 0.213
-4.502 0.213
-4.501 0.213
-4.5 0.213
-4.499 0.214
-4.498 0.214
-4.497 0.214
-4.496 0.214
-4.495 0.214
-4.494 0.214
-4.493 0.214
-4.492 0.214
-4.491 0.215
-4.49 0.215
-4.489 0.215
-4.488 0.215
-4.487 0.215
-4.486 0.215
-4.485 0.215
-4.484 0.215
-4.483 0.216
-4.482 0.216
-4.481 0.216
-4.48 0.216
-4.479 0.216
-4.478 0.216
-4.477 0.216
-4.476 0.216
-4.475 0.216
-4.474 0.217
-4.473 0.217
-4.472 0.217
-4.471 0.217
-4.47 0.217
-4.469 0.217
-4.468 0.217
-4.467 0.217
-4.466 0.218
-4.465 0.218
-4.464 0.218
-4.463 0.218
-4.462 0.218
-4.461 0.218
-4.46 0.218
-4.459 0.218
-4.458 0.219
-4.457 0.219
-4.456 0.219
-4.455 0.219
-4.454 0.219
-4.453 0.219
-4.452 0.22
-4.451 0.22
-4.45 0.22
-4.449 0.22
-4.448 0.22
-4.447 0.22
-4.446 0.22
-4.445 0.22
-4.444 0.22
-4.443 0.22
-4.442 0.221
-4.441 0.221
-4.44 0.221
-4.439 0.221
-4.438 0.221
-4.437 0.222
-4.436 0.222
-4.435 0.222
-4.434 0.222
-4.433 0.222
-4.432 0.223
-4.431 0.223
-4.43 0.223
-4.429 0.223
-4.428 0.223
-4.427 0.223
-4.426 0.224
-4.425 0.224
-4.424 0.224
-4.423 0.224
-4.422 0.224
-4.421 0.225
-4.42 0.225
-4.419 0.224
-4.418 0.225
-4.417 0.225
-4.416 0.226
-4.415 0.225
-4.414 0.225
-4.413 0.225
-4.412 0.225
-4.411 0.226
-4.41 0.226
-4.409 0.226
-4.408 0.226
-4.407 0.226
-4.406 0.226
-4.405 0.227
-4.404 0.227
-4.403 0.227
-4.402 0.227
-4.401 0.227
-4.4 0.228
-4.399 0.228
-4.398 0.228
-4.397 0.228
-4.396 0.228
-4.395 0.228
-4.394 0.229
-4.393 0.23
-4.392 0.23
-4.391 0.23
-4.39 0.23
-4.389 0.231
-4.388 0.231
-4.387 0.231
-4.386 0.231
-4.385 0.231
-4.384 0.231
-4.383 0.232
-4.382 0.232
-4.381 0.232
-4.38 0.232
-4.379 0.232
-4.378 0.233
-4.377 0.233
-4.376 0.233
-4.375 0.233
-4.374 0.233
-4.373 0.234
-4.372 0.234
-4.371 0.234
-4.37 0.234
-4.369 0.234
-4.368 0.234
-4.367 0.236
-4.366 0.236
-4.365 0.236
-4.364 0.236
-4.363 0.236
-4.362 0.237
-4.361 0.237
-4.36 0.237
-4.359 0.237
-4.358 0.237
-4.357 0.238
-4.356 0.238
-4.355 0.238
-4.354 0.239
-4.353 0.239
-4.352 0.239
-4.351 0.24
-4.35 0.24
-4.349 0.24
-4.348 0.24
-4.347 0.24
-4.346 0.241
-4.345 0.241
-4.344 0.241
-4.343 0.241
-4.342 0.242
-4.341 0.243
-4.34 0.243
-4.339 0.243
-4.338 0.243
-4.337 0.243
-4.336 0.244
-4.335 0.244
-4.334 0.244
-4.333 0.244
-4.332 0.245
-4.331 0.246
-4.33 0.246
-4.329 0.246
-4.328 0.246
-4.327 0.246
-4.326 0.246
-4.325 0.247
-4.324 0.247
-4.323 0.248
-4.322 0.248
-4.321 0.248
-4.32 0.249
-4.319 0.249
-4.318 0.249
-4.317 0.249
-4.316 0.25
-4.315 0.251
-4.314 0.251
-4.313 0.251
-4.312 0.251
-4.311 0.252
-4.31 0.252
-4.309 0.253
-4.308 0.253
-4.307 0.253
-4.306 0.254
-4.305 0.254
-4.304 0.254
-4.303 0.254
-4.302 0.255
-4.301 0.256
-4.3 0.256
-4.299 0.256
-4.298 0.256
-4.297 0.256
-4.296 0.258
-4.295 0.258
-4.294 0.258
-4.293 0.258
-4.292 0.258
-4.291 0.259
-4.29 0.26
-4.289 0.26
-4.288 0.26
-4.287 0.261
-4.286 0.261
-4.285 0.261
-4.284 0.262
-4.283 0.262
-4.282 0.263
-4.281 0.263
-4.28 0.263
-4.279 0.263
-4.278 0.265
-4.277 0.265
-4.276 0.265
-4.275 0.265
-4.274 0.265
-4.273 0.266
-4.272 0.267
-4.271 0.267
-4.27 0.267
-4.269 0.268
-4.268 0.268
-4.267 0.269
-4.266 0.269
-4.265 0.269
-4.264 0.27
-4.263 0.27
-4.262 0.271
-4.261 0.271
-4.26 0.272
-4.259 0.272
-4.258 0.272
-4.257 0.273
-4.256 0.274
-4.255 0.274
-4.254 0.274
-4.253 0.274
-4.252 0.275
-4.251 0.276
-4.25 0.276
-4.249 0.276
-4.248 0.276
-4.247 0.277
-4.246 0.278
-4.245 0.278
-4.244 0.278
-4.243 0.279
-4.242 0.28
-4.241 0.28
-4.24 0.28
-4.239 0.281
-4.238 0.281
-4.237 0.281
-4.236 0.281
-4.235 0.283
-4.234 0.283
-4.233 0.283
-4.232 0.283
-4.231 0.284
-4.23 0.285
-4.229 0.286
-4.228 0.286
-4.227 0.286
-4.226 0.287
-4.225 0.287
-4.224 0.288
-4.223 0.288
-4.222 0.289
-4.221 0.289
-4.22 0.289
-4.219 0.29
-4.218 0.291
-4.217 0.291
-4.216 0.291
-4.215 0.291
-4.214 0.293
-4.213 0.293
-4.212 0.293
-4.211 0.293
-4.21 0.294
-4.209 0.294
-4.208 0.295
-4.207 0.295
-4.206 0.296
-4.205 0.296
-4.204 0.296
-4.203 0.297
-4.202 0.298
-4.201 0.298
-4.2 0.298
-4.199 0.299
-4.198 0.3
-4.197 0.3
-4.196 0.3
-4.195 0.301
-4.194 0.301
-4.193 0.301
-4.192 0.302
-4.191 0.303
-4.19 0.303
-4.189 0.303
-4.188 0.304
-4.187 0.306
-4.186 0.306
-4.185 0.306
-4.184 0.306
-4.183 0.307
-4.182 0.308
-4.181 0.308
-4.18 0.308
-4.179 0.309
-4.178 0.309
-4.177 0.309
-4.176 0.31
-4.175 0.311
-4.174 0.311
-4.173 0.311
-4.172 0.311
-4.171 0.312
-4.17 0.313
-4.169 0.313
-4.168 0.313
-4.167 0.314
-4.166 0.314
-4.165 0.315
-4.164 0.315
-4.163 0.316
-4.162 0.316
-4.161 0.316
-4.16 0.316
-4.159 0.318
-4.158 0.318
-4.157 0.318
-4.156 0.318
-4.155 0.319
-4.154 0.319
-4.153 0.32
-4.152 0.32
-4.151 0.321
-4.15 0.321
-4.149 0.321
-4.148 0.322
-4.147 0.324
-4.146 0.324
-4.145 0.324
-4.144 0.324
-4.143 0.325
-4.142 0.325
-4.141 0.325
-4.14 0.326
-4.139 0.327
-4.138 0.327
-4.137 0.327
-4.136 0.327
-4.135 0.327
-4.134 0.329
-4.133 0.329
-4.132 0.329
-4.131 0.329
-4.13 0.33
-4.129 0.33
-4.128 0.33
-4.127 0.331
-4.126 0.332
-4.125 0.332
-4.124 0.332
-4.123 0.332
-4.122 0.332
-4.121 0.333
-4.12 0.333
-4.119 0.334
-4.118 0.334
-4.117 0.335
-4.116 0.335
-4.115 0.335
-4.114 0.336
-4.113 0.335
-4.112 0.337
-4.111 0.338
-4.11 0.338
-4.109 0.338
-4.108 0.339
-4.107 0.339
-4.106 0.339
-4.105 0.339
-4.104 0.339
-4.103 0.341
-4.102 0.341
-4.101 0.341
-4.1 0.341
-4.099 0.341
-4.098 0.342
-4.097 0.342
-4.096 0.342
-4.095 0.342
-4.094 0.342
-4.093 0.344
-4.092 0.344
-4.091 0.344
-4.09 0.344
-4.089 0.344
-4.088 0.344
-4.087 0.345
-4.086 0.345
-4.085 0.345
-4.084 0.345
-4.083 0.345
-4.082 0.347
-4.081 0.347
-4.08 0.348
-4.079 0.348
-4.078 0.348
-4.077 0.348
-4.076 0.349
-4.075 0.349
-4.074 0.349
-4.073 0.349
-4.072 0.349
-4.071 0.349
-4.07 0.35
-4.069 0.35
-4.068 0.351
-4.067 0.351
-4.066 0.351
-4.065 0.351
-4.064 0.351
-4.063 0.352
-4.062 0.352
-4.061 0.352
-4.06 0.352
-4.059 0.352
-4.058 0.352
-4.057 0.352
-4.056 0.352
-4.055 0.353
-4.054 0.354
-4.053 0.353
-4.052 0.354
-4.051 0.354
-4.05 0.354
-4.049 0.354
-4.048 0.354
-4.047 0.355
-4.046 0.356
-4.045 0.356
-4.044 0.356
-4.043 0.356
-4.042 0.356
-4.041 0.356
-4.04 0.356
-4.039 0.356
-4.038 0.356
-4.037 0.357
-4.036 0.357
-4.035 0.357
-4.034 0.357
-4.033 0.357
-4.032 0.357
-4.031 0.357
-4.03 0.357
-4.029 0.357
-4.028 0.357
-4.027 0.358
-4.026 0.358
-4.025 0.358
-4.024 0.358
-4.023 0.359
-4.022 0.359
-4.021 0.359
-4.02 0.359
-4.019 0.359
-4.018 0.359
-4.017 0.359
-4.016 0.359
-4.015 0.359
-4.014 0.359
-4.013 0.359
-4.012 0.359
-4.011 0.359
-4.01 0.359
-4.009 0.359
-4.008 0.359
-4.007 0.359
-4.006 0.359
-4.005 0.359
-4.004 0.359
-4.003 0.359
-4.002 0.359
-4.001 0.359
-4.0 0.359
-3.999 0.359
-3.998 0.359
-3.997 0.359
-3.996 0.359
-3.995 0.359
-3.994 0.359
-3.993 0.359
-3.992 0.359
-3.991 0.359
-3.99 0.359
-3.989 0.359
-3.988 0.359
-3.987 0.359
-3.986 0.359
-3.985 0.359
-3.984 0.359
-3.983 0.359
-3.982 0.359
-3.981 0.36
-3.98 0.36
-3.979 0.359
-3.978 0.359
-3.977 0.359
-3.976 0.359
-3.975 0.359
-3.974 0.358
-3.973 0.358
-3.972 0.358
-3.971 0.358
-3.97 0.358
-3.969 0.358
-3.968 0.358
-3.967 0.358
-3.966 0.358
-3.965 0.358
-3.964 0.358
-3.963 0.358
-3.962 0.358
-3.961 0.356
-3.96 0.356
-3.959 0.356
-3.958 0.356
-3.957 0.357
-3.956 0.357
-3.955 0.357
-3.954 0.357
-3.953 0.357
-3.952 0.356
-3.951 0.356
-3.95 0.356
-3.949 0.356
-3.948 0.356
-3.947 0.356
-3.946 0.355
-3.945 0.355
-3.944 0.354
-3.943 0.354
-3.942 0.354
-3.941 0.354
-3.94 0.354
-3.939 0.354
-3.938 0.354
-3.937 0.353
-3.936 0.353
-3.935 0.354
-3.934 0.354
-3.933 0.353
-3.932 0.353
-3.931 0.353
-3.93 0.352
-3.929 0.352
-3.928 0.352
-3.927 0.352
-3.926 0.352
-3.925 0.351
-3.924 0.351
-3.923 0.351
-3.922 0.351
-3.921 0.351
-3.92 0.35
-3.919 0.349
-3.918 0.349
-3.917 0.349
-3.916 0.349
-3.915 0.349
-3.914 0.349
-3.913 0.349
-3.912 0.349
-3.911 0.349
-3.91 0.349
-3.909 0.348
-3.908 0.348
-3.907 0.347
-3.906 0.347
-3.905 0.346
-3.904 0.346
-3.903 0.346
-3.902 0.346
-3.901 0.346
-3.9 0.345
-3.899 0.345
-3.898 0.345
-3.897 0.345
-3.896 0.344
-3.895 0.344
-3.894 0.344
-3.893 0.343
-3.892 0.342
-3.891 0.342
-3.89 0.342
-3.889 0.342
-3.888 0.342
-3.887 0.341
-3.886 0.342
-3.885 0.342
-3.884 0.341
-3.883 0.341
-3.882 0.341
-3.881 0.34
-3.88 0.34
-3.879 0.34
-3.878 0.339
-3.877 0.338
-3.876 0.338
-3.875 0.338
-3.874 0.338
-3.873 0.337
-3.872 0.337
-3.871 0.337
-3.87 0.336
-3.869 0.336
-3.868 0.336
-3.867 0.335
-3.866 0.335
-3.865 0.335
-3.864 0.335
-3.863 0.334
-3.862 0.334
-3.861 0.334
-3.86 0.333
-3.859 0.333
-3.858 0.332
-3.857 0.331
-3.856 0.331
-3.855 0.332
-3.854 0.331
-3.853 0.331
-3.852 0.331
-3.851 0.331
-3.85 0.33
-3.849 0.33
-3.848 0.33
-3.847 0.329
-3.846 0.329
-3.845 0.329
-3.844 0.328
-3.843 0.328
-3.842 0.328
-3.841 0.327
-3.84 0.327
-3.839 0.327
-3.838 0.326
-3.837 0.326
-3.836 0.326
-3.835 0.325
-3.834 0.325
-3.833 0.325
-3.832 0.324
-3.831 0.324
-3.83 0.323
-3.829 0.323
-3.828 0.323
-3.827 0.322
-3.826 0.322
-3.825 0.322
-3.824 0.321
-3.823 0.321
-3.822 0.321
-3.821 0.32
-3.82 0.32
-3.819 0.32
-3.818 0.319
-3.817 0.319
-3.816 0.319
-3.815 0.318
-3.814 0.318
-3.813 0.317
-3.812 0.317
-3.811 0.317
-3.81 0.316
-3.809 0.316
-3.808 0.316
-3.807 0.315
-3.806 0.315
-3.805 0.314
-3.804 0.314
-3.803 0.314
-3.802 0.313
-3.801 0.313
-3.8 0.313
-3.799 0.313
-3.798 0.313
-3.797 0.312
-3.796 0.312
-3.795 0.312
-3.794 0.311
-3.793 0.311
-3.792 0.311
-3.791 0.31
-3.79 0.31
-3.789 0.309
-3.788 0.309
-3.787 0.309
-3.786 0.308
-3.785 0.308
-3.784 0.308
-3.783 0.308
-3.782 0.308
-3.781 0.307
-3.78 0.307
-3.779 0.307
-3.778 0.306
-3.777 0.306
-3.776 0.305
-3.775 0.305
-3.774 0.305
-3.773 0.304
-3.772 0.305
-3.771 0.304
-3.77 0.304
-3.769 0.304
-3.768 0.303
-3.767 0.303
-3.766 0.302
-3.765 0.302
-3.764 0.302
-3.763 0.301
-3.762 0.302
-3.761 0.302
-3.76 0.301
-3.759 0.301
-3.758 0.3
-3.757 0.3
-3.756 0.3
-3.755 0.299
-3.754 0.3
-3.753 0.299
-3.752 0.299
-3.751 0.299
-3.75 0.298
-3.749 0.298
-3.748 0.297
-3.747 0.298
-3.746 0.298
-3.745 0.297
-3.744 0.297
-3.743 0.296
-3.742 0.296
-3.741 0.297
-3.74 0.295
-3.739 0.295
-3.738 0.294
-3.737 0.294
-3.736 0.294
-3.735 0.294
-3.734 0.294
-3.733 0.293
-3.732 0.293
-3.731 0.293
-3.73 0.292
-3.729 0.293
-3.728 0.293
-3.727 0.292
-3.726 0.292
-3.725 0.291
-3.724 0.292
-3.723 0.292
-3.722 0.291
-3.721 0.291
-3.72 0.29
-3.719 0.29
-3.718 0.291
-3.717 0.29
-3.716 0.29
-3.715 0.289
-3.714 0.289
-3.713 0.289
-3.712 0.288
-3.711 0.288
-3.71 0.287
-3.709 0.288
-3.708 0.288
-3.707 0.287
-3.706 0.287
-3.705 0.287
-3.704 0.287
-3.703 0.287
-3.702 0.286
-3.701 0.286
-3.7 0.287
-3.699 0.286
-3.698 0.286
-3.697 0.285
-3.696 0.286
-3.695 0.286
-3.694 0.285
-3.693 0.284
-3.692 0.285
-3.691 0.284
-3.69 0.284
-3.689 0.283
-3.688 0.284
-3.687 0.284
-3.686 0.283
-3.685 0.283
-3.684 0.283
-3.683 0.283
-3.682 0.283
-3.681 0.282
-3.68 0.283
-3.679 0.282
-3.678 0.282
-3.677 0.281
-3.676 0.282
-3.675 0.282
-3.674 0.281
-3.673 0.281
-3.672 0.281
-3.671 0.281
-3.67 0.28
-3.669 0.281
-3.668 0.281
-3.667 0.28
-3.666 0.28
-3.665 0.28
-3.664 0.28
-3.663 0.279
-3.662 0.279
-3.661 0.28
-3.66 0.279
-3.659 0.279
-3.658 0.279
-3.657 0.279
-3.656 0.278
-3.655 0.278
-3.654 0.279
-3.653 0.278
-3.652 0.278
-3.651 0.278
-3.65 0.278
-3.649 0.277
-3.648 0.278
-3.647 0.278
-3.646 0.277
-3.645 0.277
-3.644 0.277
-3.643 0.277
-3.642 0.277
-3.641 0.277
-3.64 0.277
-3.639 0.276
-3.638 0.277
-3.637 0.277
-3.636 0.276
-3.635 0.276
-3.634 0.276
-3.633 0.276
-3.632 0.276
-3.631 0.276
-3.63 0.276
-3.629 0.275
-3.628 0.276
-3.627 0.275
-3.626 0.275
-3.625 0.275
-3.624 0.275
-3.623 0.275
-3.622 0.274
-3.621 0.275
-3.62 0.275
-3.619 0.274
-3.618 0.275
-3.617 0.274
-3.616 0.274
-3.615 0.275
-3.614 0.274
-3.613 0.274
-3.612 0.273
-3.611 0.274
-3.61 0.274
-3.609 0.273
-3.608 0.274
-3.607 0.273
-3.606 0.273
-3.605 0.274
-3.604 0.273
-3.603 0.273
-3.602 0.274
-3.601 0.273
-3.6 0.273
-3.599 0.272
-3.598 0.273
-3.597 0.273
-3.596 0.272
-3.595 0.273
-3.594 0.273
-3.593 0.272
-3.592 0.273
-3.591 0.272
-3.59 0.272
-3.589 0.273
-3.588 0.272
-3.587 0.272
-3.586 0.272
-3.585 0.272
-3.584 0.272
-3.583 0.272
-3.582 0.272
-3.581 0.272
-3.58 0.271
-3.579 0.272
-3.578 0.272
-3.577 0.271
-3.576 0.271
-3.575 0.272
-3.574 0.271
-3.573 0.271
-3.572 0.272
-3.571 0.271
-3.57 0.271
-3.569 0.271
-3.568 0.271
-3.567 0.271
-3.566 0.27
-3.565 0.271
-3.564 0.271
-3.563 0.27
-3.562 0.27
-3.561 0.271
-3.56 0.27
-3.559 0.27
-3.558 0.271
-3.557 0.27
-3.556 0.27
-3.555 0.27
-3.554 0.27
-3.553 0.27
-3.552 0.27
-3.551 0.269
-3.55 0.27
-3.549 0.27
-3.548 0.269
-3.547 0.269
-3.546 0.27
-3.545 0.27
-3.544 0.269
-3.543 0.269
-3.542 0.27
-3.541 0.269
-3.54 0.269
-3.539 0.269
-3.538 0.269
-3.537 0.269
-3.536 0.269
-3.535 0.268
-3.534 0.269
-3.533 0.269
-3.532 0.269
-3.531 0.268
-3.53 0.269
-3.529 0.269
-3.528 0.268
-3.527 0.268
-3.526 0.269
-3.525 0.268
-3.524 0.268
-3.523 0.268
-3.522 0.268
-3.521 0.268
-3.52 0.268
-3.519 0.268
-3.518 0.267
-3.517 0.268
-3.516 0.268
-3.515 0.268
-3.514 0.267
-3.513 0.267
-3.512 0.268
-3.511 0.267
-3.51 0.267
-3.509 0.267
-3.508 0.267
-3.507 0.266
-3.506 0.267
-3.505 0.267
-3.504 0.267
-3.503 0.266
-3.502 0.266
-3.501 0.267
-3.5 0.266
-3.499 0.266
-3.498 0.266
-3.497 0.266
-3.496 0.265
-3.495 0.266
-3.494 0.266
-3.493 0.266
-3.492 0.265
-3.491 0.265
-3.49 0.265
-3.489 0.265
-3.488 0.265
-3.487 0.265
-3.486 0.265
-3.485 0.265
-3.484 0.264
-3.483 0.264
-3.482 0.264
-3.481 0.265
-3.48 0.265
-3.479 0.264
-3.478 0.264
-3.477 0.264
-3.476 0.264
-3.475 0.263
-3.474 0.263
-3.473 0.264
-3.472 0.264
-3.471 0.263
-3.47 0.263
-3.469 0.263
-3.468 0.263
-3.467 0.263
-3.466 0.262
-3.465 0.262
-3.464 0.262
-3.463 0.262
-3.462 0.262
-3.461 0.262
-3.46 0.262
-3.459 0.262
-3.458 0.262
-3.457 0.261
-3.456 0.261
-3.455 0.261
-3.454 0.261
-3.453 0.261
-3.452 0.26
-3.451 0.26
-3.45 0.26
-3.449 0.26
-3.448 0.26
-3.447 0.259
-3.446 0.26
-3.445 0.26
-3.444 0.26
-3.443 0.26
-3.442 0.26
-3.441 0.259
-3.44 0.259
-3.439 0.259
-3.438 0.259
-3.437 0.259
-3.436 0.258
-3.435 0.258
-3.434 0.258
-3.433 0.258
-3.432 0.258
-3.431 0.257
-3.43 0.257
-3.429 0.257
-3.428 0.257
-3.427 0.257
-3.426 0.257
-3.425 0.256
-3.424 0.256
-3.423 0.256
-3.422 0.256
-3.421 0.256
-3.42 0.256
-3.419 0.256
-3.418 0.255
-3.417 0.255
-3.416 0.255
-3.415 0.254
-3.414 0.254
-3.413 0.254
-3.412 0.254
-3.411 0.253
-3.41 0.253
-3.409 0.253
-3.408 0.253
-3.407 0.253
-3.406 0.253
-3.405 0.252
-3.404 0.252
-3.403 0.252
-3.402 0.252
-3.401 0.252
-3.4 0.252
-3.399 0.252
-3.398 0.251
-3.397 0.25
-3.396 0.25
-3.395 0.25
-3.394 0.25
-3.393 0.25
-3.392 0.25
-3.391 0.25
-3.39 0.25
-3.389 0.249
-3.388 0.249
-3.387 0.248
-3.386 0.248
-3.385 0.248
-3.384 0.248
-3.383 0.248
-3.382 0.248
-3.381 0.247
-3.38 0.247
-3.379 0.246
-3.378 0.246
-3.377 0.246
-3.376 0.246
-3.375 0.246
-3.374 0.246
-3.373 0.246
-3.372 0.246
-3.371 0.244
-3.37 0.244
-3.369 0.244
-3.368 0.244
-3.367 0.244
-3.366 0.244
-3.365 0.244
-3.364 0.243
-3.363 0.243
-3.362 0.243
-3.361 0.242
-3.36 0.242
-3.359 0.242
-3.358 0.242
-3.357 0.241
-3.356 0.241
-3.355 0.241
-3.354 0.241
-3.353 0.241
-3.352 0.241
-3.351 0.24
-3.35 0.24
-3.349 0.239
-3.348 0.239
-3.347 0.239
-3.346 0.238
-3.345 0.238
-3.344 0.238
-3.343 0.238
-3.342 0.238
-3.341 0.238
-3.34 0.237
-3.339 0.237
-3.338 0.237
-3.337 0.237
-3.336 0.237
-3.335 0.235
-3.334 0.235
-3.333 0.235
-3.332 0.235
-3.331 0.235
-3.33 0.234
-3.329 0.234
-3.328 0.234
-3.327 0.234
-3.326 0.234
-3.325 0.233
-3.324 0.233
-3.323 0.233
-3.322 0.233
-3.321 0.233
-3.32 0.232
-3.319 0.232
-3.318 0.232
-3.317 0.232
-3.316 0.232
-3.315 0.231
-3.314 0.231
-3.313 0.23
-3.312 0.23
-3.311 0.23
-3.31 0.229
-3.309 0.229
-3.308 0.229
-3.307 0.229
-3.306 0.229
-3.305 0.228
-3.304 0.228
-3.303 0.228
-3.302 0.228
-3.301 0.228
-3.3 0.227
-3.299 0.227
-3.298 0.227
-3.297 0.227
-3.296 0.226
-3.295 0.226
-3.294 0.226
-3.293 0.226
-3.292 0.226
-3.291 0.225
-3.29 0.225
-3.289 0.225
-3.288 0.225
-3.287 0.225
-3.286 0.224
-3.285 0.224
-3.284 0.224
-3.283 0.224
-3.282 0.224
-3.281 0.223
-3.28 0.223
-3.279 0.223
-3.278 0.223
-3.277 0.222
-3.276 0.222
-3.275 0.222
-3.274 0.222
-3.273 0.222
-3.272 0.221
-3.271 0.221
-3.27 0.221
-3.269 0.221
-3.268 0.221
-3.267 0.22
-3.266 0.22
-3.265 0.22
-3.264 0.22
-3.263 0.22
-3.262 0.22
-3.261 0.219
-3.26 0.219
-3.259 0.219
-3.258 0.219
-3.257 0.219
-3.256 0.218
-3.255 0.218
-3.254 0.218
-3.253 0.218
-3.252 0.218
-3.251 0.217
-3.25 0.217
-3.249 0.217
-3.248 0.217
-3.247 0.217
-3.246 0.217
-3.245 0.216
-3.244 0.216
-3.243 0.216
-3.242 0.216
-3.241 0.216
-3.24 0.217
-3.239 0.215
-3.238 0.215
-3.237 0.216
-3.236 0.216
-3.235 0.216
-3.234 0.216
-3.233 0.216
-3.232 0.215
-3.231 0.215
-3.23 0.215
-3.229 0.215
-3.228 0.215
-3.227 0.215
-3.226 0.215
-3.225 0.214
-3.224 0.214
-3.223 0.214
-3.222 0.214
-3.221 0.214
-3.22 0.214
-3.219 0.214
-3.218 0.214
-3.217 0.214
-3.216 0.214
-3.215 0.214
-3.214 0.214
-3.213 0.214
-3.212 0.214
-3.211 0.214
-3.21 0.214
-3.209 0.214
-3.208 0.213
-3.207 0.213
-3.206 0.213
-3.205 0.213
-3.204 0.213
-3.203 0.213
-3.202 0.214
-3.201 0.214
-3.2 0.214
-3.199 0.214
-3.198 0.214
-3.197 0.214
-3.196 0.214
-3.195 0.213
-3.194 0.213
-3.193 0.213
-3.192 0.213
-3.191 0.213
-3.19 0.214
-3.189 0.214
-3.188 0.214
-3.187 0.214
-3.186 0.214
-3.185 0.214
-3.184 0.214
-3.183 0.214
-3.182 0.214
-3.181 0.214
-3.18 0.215
-3.179 0.215
-3.178 0.215
-3.177 0.215
-3.176 0.215
-3.175 0.215
-3.174 0.215
-3.173 0.215
-3.172 0.215
-3.171 0.216
-3.17 0.216
-3.169 0.216
-3.168 0.216
-3.167 0.216
-3.166 0.216
-3.165 0.216
-3.164 0.216
-3.163 0.216
-3.162 0.217
-3.161 0.217
-3.16 0.217
-3.159 0.217
-3.158 0.217
-3.157 0.218
-3.156 0.218
-3.155 0.218
-3.154 0.218
-3.153 0.219
-3.152 0.219
-3.151 0.219
-3.15 0.219
-3.149 0.219
-3.148 0.219
-3.147 0.219
-3.146 0.22
-3.145 0.22
-3.144 0.221
-3.143 0.221
-3.142 0.221
-3.141 0.221
-3.14 0.221
-3.139 0.221
-3.138 0.222
-3.137 0.222
-3.136 0.223
-3.135 0.223
-3.134 0.223
-3.133 0.223
-3.132 0.224
-3.131 0.224
-3.13 0.224
-3.129 0.225
-3.128 0.225
-3.127 0.225
-3.126 0.225
-3.125 0.226
-3.124 0.226
-3.123 0.227
-3.122 0.227
-3.121 0.227
-3.12 0.227
-3.119 0.228
-3.118 0.229
-3.117 0.229
-3.116 0.229
-3.115 0.229
-3.114 0.229
-3.113 0.231
-3.112 0.231
-3.111 0.231
-3.11 0.231
-3.109 0.231
-3.108 0.232
-3.107 0.233
-3.106 0.233
-3.105 0.233
-3.104 0.234
-3.103 0.234
-3.102 0.235
-3.101 0.235
-3.1 0.236
-3.099 0.236
-3.098 0.236
-3.097 0.236
-3.096 0.238
-3.095 0.238
-3.094 0.238
-3.093 0.239
-3.092 0.24
-3.091 0.24
-3.09 0.24
-3.089 0.241
-3.088 0.241
-3.087 0.241
-3.086 0.243
-3.085 0.243
-3.084 0.243
-3.083 0.244
-3.082 0.245
-3.081 0.245
-3.08 0.245
-3.079 0.246
-3.078 0.246
-3.077 0.247
-3.076 0.248
-3.075 0.248
-3.074 0.248
-3.073 0.249
-3.072 0.25
-3.071 0.251
-3.07 0.251
-3.069 0.251
-3.068 0.253
-3.067 0.253
-3.066 0.253
-3.065 0.254
-3.064 0.255
-3.063 0.255
-3.062 0.256
-3.061 0.256
-3.06 0.257
-3.059 0.258
-3.058 0.258
-3.057 0.259
-3.056 0.259
-3.055 0.26
-3.054 0.261
-3.053 0.261
-3.052 0.262
-3.051 0.262
-3.05 0.263
-3.049 0.264
-3.048 0.264
-3.047 0.266
-3.046 0.266
-3.045 0.266
-3.044 0.267
-3.043 0.268
-3.042 0.269
-3.041 0.269
-3.04 0.27
-3.039 0.271
-3.038 0.271
-3.037 0.272
-3.036 0.272
-3.035 0.274
-3.034 0.274
-3.033 0.275
-3.032 0.275
-3.031 0.277
-3.03 0.277
-3.029 0.277
-3.028 0.279
-3.027 0.279
-3.026 0.28
-3.025 0.28
-3.024 0.282
-3.023 0.282
-3.022 0.283
-3.021 0.284
-3.02 0.284
-3.019 0.285
-3.018 0.285
-3.017 0.287
-3.016 0.287
-3.015 0.288
-3.014 0.289
-3.013 0.29
-3.012 0.29
-3.011 0.292
-3.01 0.292
-3.009 0.293
-3.008 0.293
-3.007 0.295
-3.006 0.295
-3.005 0.296
-3.004 0.297
-3.003 0.297
-3.002 0.298
-3.001 0.299
-3.0 0.3
-2.999 0.3
-2.998 0.302
-2.997 0.302
-2.996 0.303
-2.995 0.304
-2.994 0.305
-2.993 0.305
-2.992 0.307
-2.991 0.307
-2.99 0.308
-2.989 0.309
-2.988 0.31
-2.987 0.31
-2.986 0.312
-2.985 0.312
-2.984 0.313
-2.983 0.314
-2.982 0.315
-2.981 0.315
-2.98 0.317
-2.979 0.317
-2.978 0.318
-2.977 0.319
-2.976 0.32
-2.975 0.32
-2.974 0.321
-2.973 0.322
-2.972 0.322
-2.971 0.324
-2.97 0.324
-2.969 0.325
-2.968 0.326
-2.967 0.327
-2.966 0.328
-2.965 0.329
-2.964 0.329
-2.963 0.331
-2.962 0.331
-2.961 0.332
-2.96 0.333
-2.959 0.334
-2.958 0.335
-2.957 0.336
-2.956 0.336
-2.955 0.338
-2.954 0.338
-2.953 0.338
-2.952 0.34
-2.951 0.34
-2.95 0.342
-2.949 0.342
-2.948 0.343
-2.947 0.344
-2.946 0.345
-2.945 0.346
-2.944 0.347
-2.943 0.347
-2.942 0.348
-2.941 0.349
-2.94 0.35
-2.939 0.351
-2.938 0.351
-2.937 0.353
-2.936 0.353
-2.935 0.355
-2.934 0.355
-2.933 0.355
-2.932 0.357
-2.931 0.357
-2.93 0.359
-2.929 0.359
-2.928 0.361
-2.927 0.361
-2.926 0.361
-2.925 0.363
-2.924 0.363
-2.923 0.365
-2.922 0.365
-2.921 0.366
-2.92 0.367
-2.919 0.367
-2.918 0.369
-2.917 0.369
-2.916 0.37
-2.915 0.371
-2.914 0.372
-2.913 0.372
-2.912 0.374
-2.911 0.374
-2.91 0.375
-2.909 0.376
-2.908 0.376
-2.907 0.378
-2.906 0.378
-2.905 0.379
-2.904 0.38
-2.903 0.381
-2.902 0.381
-2.901 0.382
-2.9 0.383
-2.899 0.383
-2.898 0.385
-2.897 0.385
-2.896 0.386
-2.895 0.387
-2.894 0.388
-2.893 0.388
-2.892 0.39
-2.891 0.39
-2.89 0.391
-2.889 0.392
-2.888 0.393
-2.887 0.393
-2.886 0.394
-2.885 0.395
-2.884 0.395
-2.883 0.396
-2.882 0.397
-2.881 0.398
-2.88 0.398
-2.879 0.399
-2.878 0.4
-2.877 0.401
-2.876 0.401
-2.875 0.402
-2.874 0.403
-2.873 0.404
-2.872 0.404
-2.871 0.405
-2.87 0.406
-2.869 0.407
-2.868 0.407
-2.867 0.408
-2.866 0.408
-2.865 0.41
-2.864 0.41
-2.863 0.411
-2.862 0.411
-2.861 0.412
-2.86 0.412
-2.859 0.414
-2.858 0.414
-2.857 0.415
-2.856 0.415
-2.855 0.416
-2.854 0.416
-2.853 0.418
-2.852 0.418
-2.851 0.419
-2.85 0.419
-2.849 0.42
-2.848 0.42
-2.847 0.421
-2.846 0.422
-2.845 0.423
-2.844 0.424
-2.843 0.424
-2.842 0.425
-2.841 0.425
-2.84 0.426
-2.839 0.426
-2.838 0.427
-2.837 0.427
-2.836 0.428
-2.835 0.428
-2.834 0.429
-2.833 0.429
-2.832 0.43
-2.831 0.43
-2.83 0.431
-2.829 0.431
-2.828 0.432
-2.827 0.433
-2.826 0.433
-2.825 0.434
-2.824 0.434
-2.823 0.435
-2.822 0.435
-2.821 0.436
-2.82 0.436
-2.819 0.437
-2.818 0.437
-2.817 0.438
-2.816 0.438
-2.815 0.439
-2.814 0.439
-2.813 0.44
-2.812 0.44
-2.811 0.44
-2.81 0.441
-2.809 0.441
-2.808 0.442
-2.807 0.442
-2.806 0.443
-2.805 0.443
-2.804 0.444
-2.803 0.444
-2.802 0.445
-2.801 0.446
-2.8 0.445
-2.799 0.446
-2.798 0.446
-2.797 0.447
-2.796 0.447
-2.795 0.448
-2.794 0.448
-2.793 0.448
-2.792 0.448
-2.791 0.449
-2.79 0.45
-2.789 0.45
-2.788 0.451
-2.787 0.451
-2.786 0.451
-2.785 0.451
-2.784 0.452
-2.783 0.452
-2.782 0.453
-2.781 0.452
-2.78 0.453
-2.779 0.454
-2.778 0.454
-2.777 0.454
-2.776 0.454
-2.775 0.455
-2.774 0.455
-2.773 0.455
-2.772 0.455
-2.771 0.456
-2.77 0.456
-2.769 0.456
-2.768 0.457
-2.767 0.457
-2.766 0.458
-2.765 0.457
-2.764 0.458
-2.763 0.458
-2.762 0.458
-2.761 0.458
-2.76 0.459
-2.759 0.459
-2.758 0.459
-2.757 0.46
-2.756 0.46
-2.755 0.46
-2.754 0.46
-2.753 0.461
-2.752 0.46
-2.751 0.461
-2.75 0.461
-2.749 0.461
-2.748 0.461
-2.747 0.461
-2.746 0.461
-2.745 0.462
-2.744 0.462
-2.743 0.462
-2.742 0.463
-2.741 0.462
-2.74 0.463
-2.739 0.462
-2.738 0.463
-2.737 0.463
-2.736 0.463
-2.735 0.463
-2.734 0.463
-2.733 0.463
-2.732 0.464
-2.731 0.463
-2.73 0.464
-2.729 0.463
-2.728 0.464
-2.727 0.463
-2.726 0.464
-2.725 0.464
-2.724 0.464
-2.723 0.465
-2.722 0.464
-2.721 0.465
-2.72 0.464
-2.719 0.465
-2.718 0.464
-2.717 0.465
-2.716 0.464
-2.715 0.465
-2.714 0.464
-2.713 0.465
-2.712 0.464
-2.711 0.465
-2.71 0.464
-2.709 0.465
-2.708 0.464
-2.707 0.465
-2.706 0.464
-2.705 0.465
-2.704 0.464
-2.703 0.465
-2.702 0.464
-2.701 0.465
-2.7 0.464
-2.699 0.465
-2.698 0.464
-2.697 0.464
-2.696 0.464
-2.695 0.464
-2.694 0.464
-2.693 0.465
-2.692 0.464
-2.691 0.464
-2.69 0.464
-2.689 0.464
-2.688 0.463
-2.687 0.464
-2.686 0.463
-2.685 0.463
-2.684 0.464
-2.683 0.464
-2.682 0.464
-2.681 0.463
-2.68 0.464
-2.679 0.462
-2.678 0.463
-2.677 0.462
-2.676 0.462
-2.675 0.463
-2.674 0.463
-2.673 0.463
-2.672 0.462
-2.671 0.462
-2.67 0.462
-2.669 0.462
-2.668 0.462
-2.667 0.462
-2.666 0.461
-2.665 0.462
-2.664 0.461
-2.663 0.462
-2.662 0.461
-2.661 0.46
-2.66 0.461
-2.659 0.46
-2.658 0.46
-2.657 0.46
-2.656 0.46
-2.655 0.46
-2.654 0.459
-2.653 0.459
-2.652 0.459
-2.651 0.459
-2.65 0.458
-2.649 0.458
-2.648 0.458
-2.647 0.457
-2.646 0.458
-2.645 0.457
-2.644 0.458
-2.643 0.457
-2.642 0.456
-2.641 0.457
-2.64 0.456
-2.639 0.456
-2.638 0.456
-2.637 0.455
-2.636 0.455
-2.635 0.455
-2.634 0.454
-2.633 0.454
-2.632 0.454
-2.631 0.454
-2.63 0.453
-2.629 0.453
-2.628 0.453
-2.627 0.453
-2.626 0.452
-2.625 0.452
-2.624 0.452
-2.623 0.452
-2.622 0.451
-2.621 0.451
-2.62 0.451
-2.619 0.45
-2.618 0.45
-2.617 0.45
-2.616 0.449
-2.615 0.449
-2.614 0.449
-2.613 0.448
-2.612 0.448
-2.611 0.448
-2.61 0.447
-2.609 0.447
-2.608 0.447
-2.607 0.446
-2.606 0.446
-2.605 0.446
-2.604 0.445
-2.603 0.445
-2.602 0.445
-2.601 0.444
-2.6 0.444
-2.599 0.444
-2.598 0.443
-2.597 0.443
-2.596 0.443
-2.595 0.443
-2.594 0.442
-2.593 0.442
-2.592 0.442
-2.591 0.441
-2.59 0.44
-2.589 0.441
-2.588 0.44
-2.587 0.439
-2.586 0.44
-2.585 0.439
-2.584 0.438
-2.583 0.438
-2.582 0.438
-2.581 0.437
-2.58 0.437
-2.579 0.437
-2.578 0.437
-2.577 0.436
-2.576 0.435
-2.575 0.436
-2.574 0.435
-2.573 0.434
-2.572 0.434
-2.571 0.434
-2.57 0.433
-2.569 0.433
-2.568 0.432
-2.567 0.433
-2.566 0.432
-2.565 0.431
-2.564 0.431
-2.563 0.431
-2.562 0.43
-2.561 0.43
-2.56 0.429
-2.559 0.43
-2.558 0.429
-2.557 0.428
-2.556 0.428
-2.555 0.427
-2.554 0.427
-2.553 0.427
-2.552 0.426
-2.551 0.426
-2.55 0.426
-2.549 0.425
-2.548 0.425
-2.547 0.425
-2.546 0.425
-2.545 0.425
-2.544 0.423
-2.543 0.423
-2.542 0.423
-2.541 0.423
-2.54 0.423
-2.539 0.423
-2.538 0.422
-2.537 0.421
-2.536 0.421
-2.535 0.42
-2.534 0.421
-2.533 0.42
-2.532 0.419
-2.531 0.419
-2.53 0.418
-2.529 0.419
-2.528 0.418
-2.527 0.418
-2.526 0.417
-2.525 0.416
-2.524 0.416
-2.523 0.415
-2.522 0.416
-2.521 0.415
-2.52 0.415
-2.519 0.414
-2.518 0.414
-2.517 0.413
-2.516 0.412
-2.515 0.413
-2.514 0.412
-2.513 0.412
-2.512 0.411
-2.511 0.411
-2.51 0.41
-2.509 0.41
-2.508 0.41
-2.507 0.41
-2.506 0.409
-2.505 0.409
-2.504 0.408
-2.503 0.408
-2.502 0.407
-2.501 0.407
-2.5 0.406
-2.499 0.406
-2.498 0.406
-2.497 0.405
-2.496 0.405
-2.495 0.404
-2.494 0.404
-2.493 0.403
-2.492 0.403
-2.491 0.402
-2.49 0.402
-2.489 0.402
-2.488 0.402
-2.487 0.402
-2.486 0.401
-2.485 0.401
-2.484 0.4
-2.483 0.4
-2.482 0.399
-2.481 0.399
-2.48 0.398
-2.479 0.398
-2.478 0.397
-2.477 0.397
-2.476 0.397
-2.475 0.397
-2.474 0.397
-2.473 0.396
-2.472 0.396
-2.471 0.395
-2.47 0.395
-2.469 0.394
-2.468 0.394
-2.467 0.393
-2.466 0.393
-2.465 0.393
-2.464 0.392
-2.463 0.392
-2.462 0.391
-2.461 0.391
-2.46 0.39
-2.459 0.39
-2.458 0.39
-2.457 0.389
-2.456 0.389
-2.455 0.388
-2.454 0.388
-2.453 0.388
-2.452 0.388
-2.451 0.388
-2.45 0.387
-2.449 0.387
-2.448 0.387
-2.447 0.386
-2.446 0.386
-2.445 0.385
-2.444 0.385
-2.443 0.385
-2.442 0.384
-2.441 0.384
-2.44 0.383
-2.439 0.383
-2.438 0.383
-2.437 0.382
-2.436 0.382
-2.435 0.382
-2.434 0.381
-2.433 0.381
-2.432 0.38
-2.431 0.38
-2.43 0.38
-2.429 0.379
-2.428 0.379
-2.427 0.379
-2.426 0.378
-2.425 0.378
-2.424 0.377
-2.423 0.376
-2.422 0.376
-2.421 0.376
-2.42 0.375
-2.419 0.375
-2.418 0.375
-2.417 0.374
-2.416 0.374
-2.415 0.374
-2.414 0.373
-2.413 0.373
-2.412 0.373
-2.411 0.372
-2.41 0.372
-2.409 0.372
-2.408 0.371
-2.407 0.371
-2.406 0.371
-2.405 0.37
-2.404 0.37
-2.403 0.37
-2.402 0.369
-2.401 0.369
-2.4 0.368
-2.399 0.367
-2.398 0.367
-2.397 0.367
-2.396 0.367
-2.395 0.366
-2.394 0.366
-2.393 0.366
-2.392 0.365
-2.391 0.365
-2.39 0.365
-2.389 0.364
-2.388 0.364
-2.387 0.364
-2.386 0.364
-2.385 0.362
-2.384 0.362
-2.383 0.362
-2.382 0.361
-2.381 0.361
-2.38 0.361
-2.379 0.361
-2.378 0.36
-2.377 0.36
-2.376 0.36
-2.375 0.36
-2.374 0.359
-2.373 0.358
-2.372 0.358
-2.371 0.357
-2.37 0.357
-2.369 0.357
-2.368 0.357
-2.367 0.356
-2.366 0.356
-2.365 0.356
-2.364 0.356
-2.363 0.354
-2.362 0.354
-2.361 0.354
-2.36 0.354
-2.359 0.353
-2.358 0.353
-2.357 0.353
-2.356 0.353
-2.355 0.352
-2.354 0.351
-2.353 0.351
-2.352 0.351
-2.351 0.351
-2.35 0.35
-2.349 0.35
-2.348 0.35
-2.347 0.35
-2.346 0.348
-2.345 0.348
-2.344 0.348
-2.343 0.348
-2.342 0.347
-2.341 0.347
-2.34 0.347
-2.339 0.346
-2.338 0.346
-2.337 0.345
-2.336 0.345
-2.335 0.345
-2.334 0.345
-2.333 0.345
-2.332 0.344
-2.331 0.343
-2.33 0.343
-2.329 0.343
-2.328 0.342
-2.327 0.342
-2.326 0.342
-2.325 0.341
-2.324 0.341
-2.323 0.34
-2.322 0.34
-2.321 0.34
-2.32 0.34
-2.319 0.34
-2.318 0.338
-2.317 0.338
-2.316 0.338
-2.315 0.338
-2.314 0.338
-2.313 0.337
-2.312 0.336
-2.311 0.336
-2.31 0.336
-2.309 0.336
-2.308 0.335
-2.307 0.335
-2.306 0.334
-2.305 0.334
-2.304 0.334
-2.303 0.333
-2.302 0.333
-2.301 0.333
-2.3 0.332
-2.299 0.332
-2.298 0.332
-2.297 0.331
-2.296 0.331
-2.295 0.33
-2.294 0.33
-2.293 0.33
-2.292 0.329
-2.291 0.329
-2.29 0.329
-2.289 0.328
-2.288 0.328
-2.287 0.328
-2.286 0.327
-2.285 0.327
-2.284 0.326
-2.283 0.326
-2.282 0.326
-2.281 0.326
-2.28 0.325
-2.279 0.324
-2.278 0.324
-2.277 0.324
-2.276 0.324
-2.275 0.324
-2.274 0.322
-2.273 0.322
-2.272 0.322
-2.271 0.322
-2.27 0.322
-2.269 0.321
-2.268 0.32
-2.267 0.32
-2.266 0.32
-2.265 0.32
-2.264 0.319
-2.263 0.319
-2.262 0.319
-2.261 0.318
-2.26 0.318
-2.259 0.317
-2.258 0.317
-2.257 0.317
-2.256 0.317
-2.255 0.316
-2.254 0.315
-2.253 0.315
-2.252 0.315
-2.251 0.315
-2.25 0.314
-2.249 0.314
-2.248 0.313
-2.247 0.313
-2.246 0.312
-2.245 0.312
-2.244 0.312
-2.243 0.312
-2.242 0.312
-2.241 0.31
-2.24 0.31
-2.239 0.31
-2.238 0.31
-2.237 0.309
-2.236 0.309
-2.235 0.309
-2.234 0.308
-2.233 0.308
-2.232 0.307
-2.231 0.307
-2.23 0.307
-2.229 0.307
-2.228 0.306
-2.227 0.305
-2.226 0.305
-2.225 0.305
-2.224 0.304
-2.223 0.304
-2.222 0.304
-2.221 0.304
-2.22 0.303
-2.219 0.302
-2.218 0.302
-2.217 0.302
-2.216 0.302
-2.215 0.301
-2.214 0.301
-2.213 0.301
-2.212 0.3
-2.211 0.299
-2.21 0.299
-2.209 0.299
-2.208 0.299
-2.207 0.298
-2.206 0.298
-2.205 0.298
-2.204 0.297
-2.203 0.296
-2.202 0.296
-2.201 0.296
-2.2 0.296
-2.199 0.295
-2.198 0.295
-2.197 0.295
-2.196 0.295
-2.195 0.293
-2.194 0.293
-2.193 0.293
-2.192 0.293
-2.191 0.292
-2.19 0.292
-2.189 0.292
-2.188 0.291
-2.187 0.29
-2.186 0.29
-2.185 0.29
-2.184 0.29
-2.183 0.289
-2.182 0.289
-2.181 0.289
-2.18 0.289
-2.179 0.288
-2.178 0.287
-2.177 0.287
-2.176 0.287
-2.175 0.286
-2.174 0.286
-2.173 0.286
-2.172 0.286
-2.171 0.285
-2.17 0.284
-2.169 0.284
-2.168 0.284
-2.167 0.283
-2.166 0.283
-2.165 0.283
-2.164 0.283
-2.163 0.282
-2.162 0.282
-2.161 0.282
-2.16 0.281
-2.159 0.28
-2.158 0.28
-2.157 0.28
-2.156 0.279
-2.155 0.279
-2.154 0.279
-2.153 0.279
-2.152 0.278
-2.151 0.278
-2.15 0.277
-2.149 0.277
-2.148 0.276
-2.147 0.276
-2.146 0.276
-2.145 0.276
-2.144 0.275
-2.143 0.275
-2.142 0.275
-2.141 0.274
-2.14 0.273
-2.139 0.273
-2.138 0.273
-2.137 0.273
-2.136 0.272
-2.135 0.272
-2.134 0.272
-2.133 0.272
-2.132 0.271
-2.131 0.271
-2.13 0.271
-2.129 0.27
-2.128 0.269
-2.127 0.269
-2.126 0.269
-2.125 0.269
-2.124 0.268
-2.123 0.268
-2.122 0.268
-2.121 0.268
-2.12 0.267
-2.119 0.267
-2.118 0.266
-2.117 0.266
-2.116 0.265
-2.115 0.265
-2.114 0.265
-2.113 0.265
-2.112 0.264
-2.111 0.264
-2.11 0.264
-2.109 0.264
-2.108 0.263
-2.107 0.263
-2.106 0.262
-2.105 0.262
-2.104 0.261
-2.103 0.261
-2.102 0.261
-2.101 0.261
-2.1 0.26
-2.099 0.26
-2.098 0.26
-2.097 0.26
-2.096 0.259
-2.095 0.259
-2.094 0.259
-2.093 0.259
-2.092 0.258
-2.091 0.257
-2.09 0.257
-2.089 0.257
-2.088 0.257
-2.087 0.256
-2.086 0.256
-2.085 0.256
-2.084 0.256
-2.083 0.255
-2.082 0.255
-2.081 0.255
-2.08 0.255
-2.079 0.254
-2.078 0.254
-2.077 0.254
-2.076 0.253
-2.075 0.252
-2.074 0.252
-2.073 0.252
-2.072 0.252
-2.071 0.252
-2.07 0.251
-2.069 0.251
-2.068 0.251
-2.067 0.251
-2.066 0.25
-2.065 0.25
-2.064 0.25
-2.063 0.25
-2.062 0.25
-2.061 0.249
-2.06 0.249
-2.059 0.249
-2.058 0.249
-2.057 0.248
-2.056 0.247
-2.055 0.247
-2.054 0.247
-2.053 0.247
-2.052 0.246
-2.051 0.246
-2.05 0.246
-2.049 0.246
-2.048 0.246
-2.047 0.245
-2.046 0.245
-2.045 0.245
-2.044 0.245
-2.043 0.245
-2.042 0.244
-2.041 0.244
-2.04 0.244
-2.039 0.244
-2.038 0.244
-2.037 0.243
-2.036 0.243
-2.035 0.243
-2.034 0.243
-2.033 0.243
-2.032 0.242
-2.031 0.241
-2.03 0.242
-2.029 0.241
-2.028 0.241
-2.027 0.24
-2.026 0.24
-2.025 0.24
-2.024 0.24
-2.023 0.24
-2.022 0.239
-2.021 0.239
-2.02 0.239
-2.019 0.239
-2.018 0.239
-2.017 0.239
-2.016 0.238
-2.015 0.238
-2.014 0.238
-2.013 0.238
-2.012 0.238
-2.011 0.237
-2.01 0.237
-2.009 0.237
-2.008 0.237
-2.007 0.237
-2.006 0.237
-2.005 0.236
-2.004 0.236
-2.003 0.236
-2.002 0.236
-2.001 0.236
-2.0 0.236
-1.999 0.235
-1.998 0.235
-1.997 0.235
-1.996 0.235
-1.995 0.235
-1.994 0.235
-1.993 0.234
-1.992 0.234
-1.991 0.234
-1.99 0.234
-1.989 0.234
-1.988 0.234
-1.987 0.234
-1.986 0.233
-1.985 0.233
-1.984 0.233
-1.983 0.233
-1.982 0.233
-1.981 0.233
-1.98 0.232
-1.979 0.232
-1.978 0.232
-1.977 0.232
-1.976 0.232
-1.975 0.232
-1.974 0.232
-1.973 0.232
-1.972 0.231
-1.971 0.231
-1.97 0.231
-1.969 0.231
-1.968 0.231
-1.967 0.231
-1.966 0.231
-1.965 0.23
-1.964 0.23
-1.963 0.23
-1.962 0.23
-1.961 0.23
-1.96 0.23
-1.959 0.23
-1.958 0.23
-1.957 0.229
-1.956 0.229
-1.955 0.229
-1.954 0.229
-1.953 0.229
-1.952 0.229
-1.951 0.229
-1.95 0.229
-1.949 0.228
-1.948 0.228
-1.947 0.228
-1.946 0.228
-1.945 0.228
-1.944 0.228
-1.943 0.228
-1.942 0.229
-1.941 0.229
-1.94 0.228
-1.939 0.228
-1.938 0.228
-1.937 0.228
-1.936 0.228
-1.935 0.228
-1.934 0.228
-1.933 0.228
-1.932 0.228
-1.931 0.227
-1.93 0.227
-1.929 0.227
-1.928 0.227
-1.927 0.227
-1.926 0.227
-1.925 0.227
-1.924 0.227
-1.923 0.227
-1.922 0.227
-1.921 0.227
-1.92 0.226
-1.919 0.226
-1.918 0.226
-1.917 0.226
-1.916 0.226
-1.915 0.226
-1.914 0.226
-1.913 0.226
-1.912 0.227
-1.911 0.227
-1.91 0.227
-1.909 0.226
-1.908 0.226
-1.907 0.226
-1.906 0.226
-1.905 0.226
-1.904 0.226
-1.903 0.226
-1.902 0.226
-1.901 0.226
-1.9 0.226
-1.899 0.226
-1.898 0.225
-1.897 0.225
-1.896 0.225
-1.895 0.225
-1.894 0.225
-1.893 0.225
-1.892 0.225
-1.891 0.225
-1.89 0.226
-1.889 0.226
-1.888 0.226
-1.887 0.226
-1.886 0.226
-1.885 0.225
-1.884 0.225
-1.883 0.225
-1.882 0.225
-1.881 0.225
-1.88 0.225
-1.879 0.225
-1.878 0.225
-1.877 0.225
-1.876 0.225
-1.875 0.225
-1.874 0.225
-1.873 0.225
-1.872 0.224
-1.871 0.224
-1.87 0.224
-1.869 0.225
-1.868 0.225
-1.867 0.225
-1.866 0.225
-1.865 0.225
-1.864 0.225
-1.863 0.225
-1.862 0.225
-1.861 0.225
-1.86 0.225
-1.859 0.225
-1.858 0.224
-1.857 0.224
-1.856 0.224
-1.855 0.224
-1.854 0.224
-1.853 0.224
-1.852 0.224
-1.851 0.224
-1.85 0.224
-1.849 0.224
-1.848 0.225
-1.847 0.225
-1.846 0.225
-1.845 0.225
-1.844 0.224
-1.843 0.224
-1.842 0.224
-1.841 0.224
-1.84 0.224
-1.839 0.224
-1.838 0.224
-1.837 0.224
-1.836 0.224
-1.835 0.224
-1.834 0.224
-1.833 0.224
-1.832 0.224
-1.831 0.223
-1.83 0.223
-1.829 0.223
-1.828 0.224
-1.827 0.224
-1.826 0.224
-1.825 0.224
-1.824 0.224
-1.823 0.224
-1.822 0.224
-1.821 0.224
-1.82 0.224
-1.819 0.223
-1.818 0.223
-1.817 0.223
-1.816 0.223
-1.815 0.223
-1.814 0.223
-1.813 0.223
-1.812 0.223
-1.811 0.223
-1.81 0.223
-1.809 0.223
-1.808 0.222
-1.807 0.222
-1.806 0.223
-1.805 0.223
-1.804 0.223
-1.803 0.223
-1.802 0.223
-1.801 0.223
-1.8 0.223
-1.799 0.223
-1.798 0.223
-1.797 0.222
-1.796 0.222
-1.795 0.222
-1.794 0.222
-1.793 0.222
-1.792 0.222
-1.791 0.222
-1.79 0.222
-1.789 0.222
-1.788 0.221
-1.787 0.221
-1.786 0.221
-1.785 0.221
-1.784 0.221
-1.783 0.221
-1.782 0.221
-1.781 0.221
-1.78 0.221
-1.779 0.221
-1.778 0.221
-1.777 0.221
-1.776 0.221
-1.775 0.221
-1.774 0.221
-1.773 0.221
-1.772 0.221
-1.771 0.22
-1.77 0.22
-1.769 0.22
-1.768 0.22
-1.767 0.22
-1.766 0.22
-1.765 0.22
-1.764 0.219
-1.763 0.219
-1.762 0.219
-1.761 0.219
-1.76 0.219
-1.759 0.219
-1.758 0.219
-1.757 0.218
-1.756 0.218
-1.755 0.218
-1.754 0.218
-1.753 0.218
-1.752 0.218
-1.751 0.218
-1.75 0.217
-1.749 0.217
-1.748 0.217
-1.747 0.217
-1.746 0.217
-1.745 0.217
-1.744 0.216
-1.743 0.216
-1.742 0.216
-1.741 0.216
-1.74 0.216
-1.739 0.216
-1.738 0.215
-1.737 0.215
-1.736 0.215
-1.735 0.215
-1.734 0.215
-1.733 0.215
-1.732 0.214
-1.731 0.214
-1.73 0.214
-1.729 0.214
-1.728 0.214
-1.727 0.213
-1.726 0.213
-1.725 0.213
-1.724 0.213
-1.723 0.213
-1.722 0.212
-1.721 0.212
-1.72 0.212
-1.719 0.212
-1.718 0.212
-1.717 0.211
-1.716 0.211
-1.715 0.211
-1.714 0.211
-1.713 0.211
-1.712 0.21
-1.711 0.21
-1.71 0.21
-1.709 0.21
-1.708 0.209
-1.707 0.209
-1.706 0.209
-1.705 0.209
-1.704 0.209
-1.703 0.208
-1.702 0.208
-1.701 0.208
-1.7 0.208
-1.699 0.207
-1.698 0.207
-1.697 0.207
-1.696 0.207
-1.695 0.206
-1.694 0.206
-1.693 0.206
-1.692 0.206
-1.691 0.205
-1.69 0.205
-1.689 0.205
-1.688 0.205
-1.687 0.204
-1.686 0.204
-1.685 0.204
-1.684 0.204
-1.683 0.203
-1.682 0.203
-1.681 0.203
-1.68 0.202
-1.679 0.202
-1.678 0.202
-1.677 0.202
-1.676 0.201
-1.675 0.2
-1.674 0.2
-1.673 0.2
-1.672 0.199
-1.671 0.199
-1.67 0.199
-1.669 0.198
-1.668 0.198
-1.667 0.198
-1.666 0.197
-1.665 0.197
-1.664 0.197
-1.663 0.197
-1.662 0.196
-1.661 0.196
-1.66 0.196
-1.659 0.195
-1.658 0.195
-1.657 0.195
-1.656 0.194
-1.655 0.194
-1.654 0.194
-1.653 0.193
-1.652 0.192
-1.651 0.192
-1.65 0.192
-1.649 0.191
-1.648 0.191
-1.647 0.191
-1.646 0.19
-1.645 0.19
-1.644 0.19
-1.643 0.189
-1.642 0.189
-1.641 0.189
-1.64 0.188
-1.639 0.188
-1.638 0.188
-1.637 0.187
-1.636 0.187
-1.635 0.186
-1.634 0.185
-1.633 0.185
-1.632 0.184
-1.631 0.184
-1.63 0.184
-1.629 0.183
-1.628 0.183
-1.627 0.183
-1.626 0.182
-1.625 0.182
-1.624 0.182
-1.623 0.181
-1.622 0.181
-1.621 0.18
-1.62 0.179
-1.619 0.179
-1.618 0.178
-1.617 0.178
-1.616 0.178
-1.615 0.177
-1.614 0.177
-1.613 0.176
-1.612 0.176
-1.611 0.176
-1.61 0.175
-1.609 0.175
-1.608 0.175
-1.607 0.174
-1.606 0.173
-1.605 0.172
-1.604 0.172
-1.603 0.172
-1.602 0.171
-1.601 0.171
-1.6 0.17
-1.599 0.17
-1.598 0.17
-1.597 0.169
-1.596 0.169
-1.595 0.168
-1.594 0.168
-1.593 0.167
-1.592 0.166
-1.591 0.166
-1.59 0.165
-1.589 0.165
-1.588 0.165
-1.587 0.164
-1.586 0.164
-1.585 0.163
-1.584 0.163
-1.583 0.163
-1.582 0.162
-1.581 0.161
-1.58 0.16
-1.579 0.16
-1.578 0.16
-1.577 0.159
-1.576 0.159
-1.575 0.158
-1.574 0.158
-1.573 0.157
-1.572 0.157
-1.571 0.157
-1.57 0.156
-1.569 0.155
-1.568 0.154
-1.567 0.154
-1.566 0.153
-1.565 0.153
-1.564 0.153
-1.563 0.152
-1.562 0.152
-1.561 0.151
-1.56 0.151
-1.559 0.15
-1.558 0.149
-1.557 0.149
-1.556 0.148
-1.555 0.148
-1.554 0.147
-1.553 0.147
-1.552 0.146
-1.551 0.146
-1.55 0.146
-1.549 0.145
-1.548 0.145
-1.547 0.143
-1.546 0.143
-1.545 0.142
-1.544 0.142
-1.543 0.142
-1.542 0.141
-1.541 0.141
-1.54 0.14
-1.539 0.14
-1.538 0.139
-1.537 0.139
-1.536 0.137
-1.535 0.137
-1.534 0.137
-1.533 0.136
-1.532 0.136
-1.531 0.135
-1.53 0.135
-1.529 0.134
-1.528 0.134
-1.527 0.134
-1.526 0.132
-1.525 0.132
-1.524 0.131
-1.523 0.131
-1.522 0.13
-1.521 0.13
-1.52 0.129
-1.519 0.129
-1.518 0.128
-1.517 0.128
-1.516 0.127
-1.515 0.127
-1.514 0.126
-1.513 0.126
-1.512 0.125
-1.511 0.125
-1.51 0.124
-1.509 0.124
-1.508 0.123
-1.507 0.122
-1.506 0.122
-1.505 0.122
-1.504 0.121
-1.503 0.12
-1.502 0.12
-1.501 0.119
-1.5 0.119
-1.499 0.118
-1.498 0.118
-1.497 0.117
-1.496 0.117
-1.495 0.116
-1.494 0.116
-1.493 0.115
-1.492 0.115
-1.491 0.114
-1.49 0.114
-1.489 0.113
-1.488 0.113
-1.487 0.112
-1.486 0.112
-1.485 0.111
-1.484 0.111
-1.483 0.11
-1.482 0.11
-1.481 0.109
-1.48 0.108
-1.479 0.108
-1.478 0.108
-1.477 0.107
-1.476 0.106
-1.475 0.106
-1.474 0.105
-1.473 0.105
-1.472 0.104
-1.471 0.104
-1.47 0.103
-1.469 0.103
-1.468 0.102
-1.467 0.102
-1.466 0.101
-1.465 0.101
-1.464 0.101
-1.463 0.1
-1.462 0.0995
-1.461 0.0991
-1.46 0.0985
-1.459 0.098
-1.458 0.0976
-1.457 0.0971
-1.456 0.0966
-1.455 0.0961
-1.454 0.0956
-1.453 0.0951
-1.452 0.0947
-1.451 0.0942
-1.45 0.0938
-1.449 0.0933
-1.448 0.0928
-1.447 0.0924
-1.446 0.0919
-1.445 0.0914
-1.444 0.091
-1.443 0.0905
-1.442 0.0901
-1.441 0.0895
-1.44 0.0891
-1.439 0.0886
-1.438 0.0882
-1.437 0.0877
-1.436 0.0872
-1.435 0.0868
-1.434 0.0863
-1.433 0.086
-1.432 0.0855
-1.431 0.0851
-1.43 0.0846
-1.429 0.0842
-1.428 0.0837
-1.427 0.0834
-1.426 0.0828
-1.425 0.0824
-1.424 0.0819
-1.423 0.0816
-1.422 0.0812
-1.421 0.0807
-1.42 0.0804
-1.419 0.0799
-1.418 0.0795
-1.417 0.079
-1.416 0.0787
-1.415 0.0783
-1.414 0.0779
-1.413 0.0775
-1.412 0.077
-1.411 0.0766
-1.41 0.0762
-1.409 0.0758
-1.408 0.0754
-1.407 0.0751
-1.406 0.0746
-1.405 0.0742
-1.404 0.0739
-1.403 0.0734
-1.402 0.0731
-1.401 0.0728
-1.4 0.0724
-1.399 0.072
-1.398 0.0716
-1.397 0.0713
-1.396 0.0709
-1.395 0.0704
-1.394 0.0701
-1.393 0.0697
-1.392 0.0694
-1.391 0.0691
-1.39 0.0686
-1.389 0.0683
-1.388 0.068
-1.387 0.0677
-1.386 0.0673
-1.385 0.067
-1.384 0.0666
-1.383 0.0663
-1.382 0.0659
-1.381 0.0656
-1.38 0.0652
-1.379 0.0649
-1.378 0.0646
-1.377 0.0643
-1.376 0.064
-1.375 0.0637
-1.374 0.0633
-1.373 0.063
-1.372 0.0627
-1.371 0.0624
-1.37 0.0621
-1.369 0.0618
-1.368 0.0615
-1.367 0.0612
-1.366 0.0609
-1.365 0.0606
-1.364 0.0604
-1.363 0.06
-1.362 0.0597
-1.361 0.0594
-1.36 0.0591
-1.359 0.0588
-1.358 0.0585
-1.357 0.0583
-1.356 0.0581
-1.355 0.0578
-1.354 0.0575
-1.353 0.0572
-1.352 0.057
-1.351 0.0568
-1.35 0.0565
-1.349 0.0562
-1.348 0.056
-1.347 0.0558
-1.346 0.0555
-1.345 0.0552
-1.344 0.055
-1.343 0.0547
-1.342 0.0545
-1.341 0.0542
-1.34 0.0541
-1.339 0.0538
-1.338 0.0537
-1.337 0.0534
-1.336 0.0532
-1.335 0.053
-1.334 0.0528
-1.333 0.0526
-1.332 0.0524
-1.331 0.0522
-1.33 0.052
-1.329 0.0518
-1.328 0.0516
-1.327 0.0514
-1.326 0.0511
-1.325 0.051
-1.324 0.0508
-1.323 0.0506
-1.322 0.0504
-1.321 0.0503
-1.32 0.0501
-1.319 0.0499
-1.318 0.0498
-1.317 0.0496
-1.316 0.0494
-1.315 0.0493
-1.314 0.0492
-1.313 0.049
-1.312 0.0489
-1.311 0.0488
-1.31 0.0486
-1.309 0.0484
-1.308 0.0483
-1.307 0.0481
-1.306 0.048
-1.305 0.0479
-1.304 0.0477
-1.303 0.0476
-1.302 0.0475
-1.301 0.0474
-1.3 0.0473
-1.299 0.0472
-1.298 0.0471
-1.297 0.047
-1.296 0.0469
-1.295 0.0468
-1.294 0.0467
-1.293 0.0466
-1.292 0.0466
-1.291 0.0465
-1.29 0.0464
-1.289 0.0463
-1.288 0.0462
-1.287 0.0462
-1.286 0.0462
-1.285 0.046
-1.284 0.0459
-1.283 0.0458
-1.282 0.0458
-1.281 0.0458
-1.28 0.0457
-1.279 0.0457
-1.278 0.0457
-1.277 0.0456
-1.276 0.0456
-1.275 0.0456
-1.274 0.0455
-1.273 0.0455
-1.272 0.0455
-1.271 0.0454
-1.27 0.0455
-1.269 0.0454
-1.268 0.0455
-1.267 0.0454
-1.266 0.0455
-1.265 0.0454
-1.264 0.0455
-1.263 0.0454
-1.262 0.0455
-1.261 0.0455
-1.26 0.0454
-1.259 0.0454
-1.258 0.0455
-1.257 0.0455
-1.256 0.0455
-1.255 0.0456
-1.254 0.0456
-1.253 0.0456
-1.252 0.0457
-1.251 0.0457
-1.25 0.0458
-1.249 0.0459
-1.248 0.0459
-1.247 0.046
-1.246 0.0461
-1.245 0.0461
-1.244 0.0461
-1.243 0.0462
-1.242 0.0464
-1.241 0.0465
-1.24 0.0465
-1.239 0.0466
-1.238 0.0467
-1.237 0.0468
-1.236 0.0469
-1.235 0.047
-1.234 0.0471
-1.233 0.0472
-1.232 0.0473
-1.231 0.0474
-1.23 0.0475
-1.229 0.0476
-1.228 0.0477
-1.227 0.0479
-1.226 0.048
-1.225 0.0482
-1.224 0.0483
-1.223 0.0485
-1.222 0.0486
-1.221 0.0488
-1.22 0.0489
-1.219 0.0491
-1.218 0.0492
-1.217 0.0494
-1.216 0.0496
-1.215 0.0497
-1.214 0.0499
-1.213 0.0501
-1.212 0.0503
-1.211 0.0504
-1.21 0.0506
-1.209 0.0509
-1.208 0.0511
-1.207 0.0513
-1.206 0.0515
-1.205 0.0517
-1.204 0.0519
-1.203 0.0522
-1.202 0.0524
-1.201 0.0526
-1.2 0.0528
-1.199 0.053
-1.198 0.0533
-1.197 0.0535
-1.196 0.0538
-1.195 0.054
-1.194 0.0542
-1.193 0.0545
-1.192 0.0548
-1.191 0.055
-1.19 0.0553
-1.189 0.0556
-1.188 0.0558
-1.187 0.0561
-1.186 0.0564
-1.185 0.0567
-1.184 0.0569
-1.183 0.0573
-1.182 0.0576
-1.181 0.0578
-1.18 0.0582
-1.179 0.0585
-1.178 0.0588
-1.177 0.0591
-1.176 0.0594
-1.175 0.0598
-1.174 0.0601
-1.173 0.0605
-1.172 0.0608
-1.171 0.0612
-1.17 0.0615
-1.169 0.0619
-1.168 0.0622
-1.167 0.0626
-1.166 0.0629
-1.165 0.0633
-1.164 0.0636
-1.163 0.0641
-1.162 0.0644
-1.161 0.0648
-1.16 0.0651
-1.159 0.0656
-1.158 0.0659
-1.157 0.0664
-1.156 0.0667
-1.155 0.0672
-1.154 0.0676
-1.153 0.068
-1.152 0.0684
-1.151 0.0688
-1.15 0.0693
-1.149 0.0697
-1.148 0.0701
-1.147 0.0706
-1.146 0.0711
-1.145 0.0714
-1.144 0.0719
-1.143 0.0724
-1.142 0.0728
-1.141 0.0733
-1.14 0.0738
-1.139 0.0742
-1.138 0.0747
-1.137 0.0753
-1.136 0.0758
-1.135 0.0762
-1.134 0.0767
-1.133 0.0772
-1.132 0.0777
-1.131 0.0782
-1.13 0.0788
-1.129 0.0793
-1.128 0.0797
-1.127 0.0803
-1.126 0.0809
-1.125 0.0814
-1.124 0.082
-1.123 0.0824
-1.122 0.083
-1.121 0.0836
-1.12 0.0842
-1.119 0.0847
-1.118 0.0852
-1.117 0.0858
-1.116 0.0864
-1.115 0.087
-1.114 0.0876
-1.113 0.0882
-1.112 0.0888
-1.111 0.0894
-1.11 0.09
-1.109 0.0906
-1.108 0.0912
-1.107 0.0918
-1.106 0.0925
-1.105 0.0931
-1.104 0.0937
-1.103 0.0944
-1.102 0.095
-1.101 0.0957
-1.1 0.0963
-1.099 0.0969
-1.098 0.0976
-1.097 0.0983
-1.096 0.0989
-1.095 0.0996
-1.094 0.1
-1.093 0.101
-1.092 0.102
-1.091 0.102
-1.09 0.103
-1.089 0.104
-1.088 0.104
-1.087 0.105
-1.086 0.106
-1.085 0.107
-1.084 0.107
-1.083 0.108
-1.082 0.109
-1.081 0.11
-1.08 0.11
-1.079 0.111
-1.078 0.112
-1.077 0.113
-1.076 0.113
-1.075 0.114
-1.074 0.115
-1.073 0.116
-1.072 0.116
-1.071 0.117
-1.07 0.118
-1.069 0.119
-1.068 0.12
-1.067 0.12
-1.066 0.121
-1.065 0.122
-1.064 0.123
-1.063 0.124
-1.062 0.124
-1.061 0.125
-1.06 0.126
-1.059 0.127
-1.058 0.128
-1.057 0.129
-1.056 0.129
-1.055 0.13
-1.054 0.131
-1.053 0.132
-1.052 0.133
-1.051 0.134
-1.05 0.135
-1.049 0.136
-1.048 0.136
-1.047 0.137
-1.046 0.138
-1.045 0.139
-1.044 0.14
-1.043 0.141
-1.042 0.142
-1.041 0.143
-1.04 0.144
-1.039 0.145
-1.038 0.145
-1.037 0.146
-1.036 0.147
-1.035 0.148
-1.034 0.149
-1.033 0.15
-1.032 0.151
-1.031 0.152
-1.03 0.153
-1.029 0.155
-1.028 0.156
-1.027 0.157
-1.026 0.158
-1.025 0.159
-1.024 0.16
-1.023 0.161
-1.022 0.162
-1.021 0.163
-1.02 0.164
-1.019 0.165
-1.018 0.166
-1.017 0.167
-1.016 0.168
-1.015 0.169
-1.014 0.17
-1.013 0.171
-1.012 0.172
-1.011 0.173
-1.01 0.174
-1.009 0.175
-1.008 0.176
-1.007 0.177
-1.006 0.178
-1.005 0.179
-1.004 0.18
-1.003 0.182
-1.002 0.183
-1.001 0.184
-1.0 0.185
-0.999 0.186
-0.998 0.187
-0.997 0.188
-0.996 0.189
-0.995 0.19
-0.994 0.191
-0.993 0.192
-0.992 0.194
-0.991 0.195
-0.99 0.196
-0.989 0.197
-0.988 0.199
-0.987 0.2
-0.986 0.201
-0.985 0.203
-0.984 0.204
-0.983 0.205
-0.982 0.206
-0.981 0.207
-0.98 0.208
-0.979 0.21
-0.978 0.211
-0.977 0.212
-0.976 0.213
-0.975 0.214
-0.974 0.215
-0.973 0.217
-0.972 0.218
-0.971 0.219
-0.97 0.22
-0.969 0.221
-0.968 0.223
-0.967 0.224
-0.966 0.225
-0.965 0.226
-0.964 0.228
-0.963 0.229
-0.962 0.23
-0.961 0.231
-0.96 0.232
-0.959 0.234
-0.958 0.235
-0.957 0.236
-0.956 0.237
-0.955 0.24
-0.954 0.241
-0.953 0.242
-0.952 0.244
-0.951 0.245
-0.95 0.246
-0.949 0.247
-0.948 0.249
-0.947 0.25
-0.946 0.251
-0.945 0.252
-0.944 0.254
-0.943 0.255
-0.942 0.256
-0.941 0.258
-0.94 0.259
-0.939 0.26
-0.938 0.262
-0.937 0.263
-0.936 0.264
-0.935 0.265
-0.934 0.267
-0.933 0.268
-0.932 0.269
-0.931 0.271
-0.93 0.272
-0.929 0.273
-0.928 0.275
-0.927 0.276
-0.926 0.277
-0.925 0.28
-0.924 0.281
-0.923 0.282
-0.922 0.284
-0.921 0.285
-0.92 0.286
-0.919 0.288
-0.918 0.289
-0.917 0.291
-0.916 0.292
-0.915 0.293
-0.914 0.295
-0.913 0.296
-0.912 0.297
-0.911 0.299
-0.91 0.3
-0.909 0.301
-0.908 0.303
-0.907 0.304
-0.906 0.306
-0.905 0.307
-0.904 0.308
-0.903 0.31
-0.902 0.311
-0.901 0.312
-0.9 0.314
-0.899 0.315
-0.898 0.317
-0.897 0.318
-0.896 0.319
-0.895 0.321
-0.894 0.323
-0.893 0.324
-0.892 0.326
-0.891 0.327
-0.89 0.329
-0.889 0.33
-0.888 0.331
-0.887 0.333
-0.886 0.334
-0.885 0.336
-0.884 0.337
-0.883 0.338
-0.882 0.34
-0.881 0.341
-0.88 0.343
-0.879 0.344
-0.878 0.345
-0.877 0.347
-0.876 0.348
-0.875 0.349
-0.874 0.351
-0.873 0.352
-0.872 0.354
-0.871 0.355
-0.87 0.356
-0.869 0.358
-0.868 0.359
-0.867 0.361
-0.866 0.362
-0.865 0.363
-0.864 0.365
-0.863 0.366
-0.862 0.368
-0.861 0.37
-0.86 0.371
-0.859 0.373
-0.858 0.374
-0.857 0.375
-0.856 0.377
-0.855 0.378
-0.854 0.379
-0.853 0.381
-0.852 0.382
-0.851 0.384
-0.85 0.385
-0.849 0.386
-0.848 0.388
-0.847 0.389
-0.846 0.39
-0.845 0.392
-0.844 0.393
-0.843 0.394
-0.842 0.396
-0.841 0.397
-0.84 0.398
-0.839 0.4
-0.838 0.401
-0.837 0.402
-0.836 0.404
-0.835 0.405
-0.834 0.406
-0.833 0.408
-0.832 0.409
-0.831 0.41
-0.83 0.412
-0.829 0.413
-0.828 0.414
-0.827 0.416
-0.826 0.417
-0.825 0.418
-0.824 0.419
-0.823 0.421
-0.822 0.422
-0.821 0.423
-0.82 0.425
-0.819 0.427
-0.818 0.428
-0.817 0.429
-0.816 0.431
-0.815 0.432
-0.814 0.433
-0.813 0.434
-0.812 0.436
-0.811 0.437
-0.81 0.438
-0.809 0.439
-0.808 0.44
-0.807 0.442
-0.806 0.443
-0.805 0.444
-0.804 0.445
-0.803 0.446
-0.802 0.448
-0.801 0.449
-0.8 0.45
-0.799 0.451
-0.798 0.452
-0.797 0.454
-0.796 0.455
-0.795 0.456
-0.794 0.457
-0.793 0.458
-0.792 0.459
-0.791 0.46
-0.79 0.462
-0.789 0.463
-0.788 0.464
-0.787 0.465
-0.786 0.466
-0.785 0.467
-0.784 0.468
-0.783 0.469
-0.782 0.47
-0.781 0.471
-0.78 0.472
-0.779 0.474
-0.778 0.475
-0.777 0.476
-0.776 0.477
-0.775 0.478
-0.774 0.479
-0.773 0.48
-0.772 0.481
-0.771 0.482
-0.77 0.483
-0.769 0.484
-0.768 0.485
-0.767 0.486
-0.766 0.487
-0.765 0.488
-0.764 0.488
-0.763 0.489
-0.762 0.49
-0.761 0.491
-0.76 0.492
-0.759 0.493
-0.758 0.494
-0.757 0.495
-0.756 0.496
-0.755 0.497
-0.754 0.497
-0.753 0.498
-0.752 0.499
-0.751 0.5
-0.75 0.501
-0.749 0.502
-0.748 0.503
-0.747 0.503
-0.746 0.504
-0.745 0.505
-0.744 0.506
-0.743 0.506
-0.742 0.507
-0.741 0.508
-0.74 0.509
-0.739 0.509
-0.738 0.51
-0.737 0.511
-0.736 0.512
-0.735 0.512
-0.734 0.513
-0.733 0.514
-0.732 0.514
-0.731 0.515
-0.73 0.516
-0.729 0.516
-0.728 0.517
-0.727 0.517
-0.726 0.518
-0.725 0.519
-0.724 0.519
-0.723 0.52
-0.722 0.52
-0.721 0.521
-0.72 0.522
-0.719 0.522
-0.718 0.523
-0.717 0.523
-0.716 0.524
-0.715 0.524
-0.714 0.525
-0.713 0.525
-0.712 0.526
-0.711 0.526
-0.71 0.526
-0.709 0.527
-0.708 0.527
-0.707 0.528
-0.706 0.528
-0.705 0.528
-0.704 0.529
-0.703 0.529
-0.702 0.53
-0.701 0.53
-0.7 0.53
-0.699 0.531
-0.698 0.531
-0.697 0.531
-0.696 0.532
-0.695 0.532
-0.694 0.532
-0.693 0.532
-0.692 0.533
-0.691 0.533
-0.69 0.533
-0.689 0.533
-0.688 0.533
-0.687 0.534
-0.686 0.534
-0.685 0.534
-0.684 0.534
-0.683 0.534
-0.682 0.534
-0.681 0.535
-0.68 0.535
-0.679 0.535
-0.678 0.535
-0.677 0.535
-0.676 0.535
-0.675 0.535
-0.674 0.535
-0.673 0.535
-0.672 0.535
-0.671 0.535
-0.67 0.535
-0.669 0.535
-0.668 0.535
-0.667 0.535
-0.666 0.535
-0.665 0.535
-0.664 0.535
-0.663 0.535
-0.662 0.535
-0.661 0.535
-0.66 0.535
-0.659 0.534
-0.658 0.533
-0.657 0.533
-0.656 0.533
-0.655 0.533
-0.654 0.533
-0.653 0.532
-0.652 0.532
-0.651 0.532
-0.65 0.532
-0.649 0.532
-0.648 0.531
-0.647 0.531
-0.646 0.531
-0.645 0.531
-0.644 0.53
-0.643 0.53
-0.642 0.53
-0.641 0.529
-0.64 0.529
-0.639 0.529
-0.638 0.528
-0.637 0.528
-0.636 0.527
-0.635 0.527
-0.634 0.527
-0.633 0.526
-0.632 0.526
-0.631 0.525
-0.63 0.525
-0.629 0.524
-0.628 0.524
-0.627 0.523
-0.626 0.523
-0.625 0.522
-0.624 0.522
-0.623 0.521
-0.622 0.52
-0.621 0.519
-0.62 0.519
-0.619 0.518
-0.618 0.518
-0.617 0.517
-0.616 0.516
-0.615 0.516
-0.614 0.515
-0.613 0.514
-0.612 0.514
-0.611 0.513
-0.61 0.512
-0.609 0.512
-0.608 0.511
-0.607 0.51
-0.606 0.51
-0.605 0.509
-0.604 0.508
-0.603 0.507
-0.602 0.507
-0.601 0.506
-0.6 0.505
-0.599 0.504
-0.598 0.504
-0.597 0.503
-0.596 0.502
-0.595 0.501
-0.594 0.5
-0.593 0.499
-0.592 0.499
-0.591 0.498
-0.59 0.496
-0.589 0.495
-0.588 0.494
-0.587 0.493
-0.586 0.492
-0.585 0.491
-0.584 0.49
-0.583 0.489
-0.582 0.488
-0.581 0.487
-0.58 0.486
-0.579 0.486
-0.578 0.485
-0.577 0.484
-0.576 0.483
-0.575 0.482
-0.574 0.48
-0.573 0.479
-0.572 0.478
-0.571 0.477
-0.57 0.476
-0.569 0.475
-0.568 0.474
-0.567 0.473
-0.566 0.472
-0.565 0.471
-0.564 0.47
-0.563 0.469
-0.562 0.467
-0.561 0.465
-0.56 0.464
-0.559 0.463
-0.558 0.462
-0.557 0.461
-0.556 0.46
-0.555 0.458
-0.554 0.457
-0.553 0.456
-0.552 0.455
-0.551 0.454
-0.55 0.452
-0.549 0.451
-0.548 0.45
-0.547 0.449
-0.546 0.448
-0.545 0.446
-0.544 0.445
-0.543 0.444
-0.542 0.443
-0.541 0.441
-0.54 0.44
-0.539 0.439
-0.538 0.437
-0.537 0.436
-0.536 0.435
-0.535 0.432
-0.534 0.431
-0.533 0.43
-0.532 0.428
-0.531 0.427
-0.53 0.426
-0.529 0.424
-0.528 0.423
-0.527 0.422
-0.526 0.42
-0.525 0.419
-0.524 0.418
-0.523 0.416
-0.522 0.415
-0.521 0.413
-0.52 0.412
-0.519 0.411
-0.518 0.409
-0.517 0.408
-0.516 0.406
-0.515 0.405
-0.514 0.404
-0.513 0.402
-0.512 0.401
-0.511 0.399
-0.51 0.398
-0.509 0.396
-0.508 0.394
-0.507 0.393
-0.506 0.391
-0.505 0.39
-0.504 0.388
-0.503 0.387
-0.502 0.385
-0.501 0.384
-0.5 0.382
-0.499 0.381
-0.498 0.379
-0.497 0.378
-0.496 0.376
-0.495 0.375
-0.494 0.373
-0.493 0.372
-0.492 0.37
-0.491 0.369
-0.49 0.367
-0.489 0.366
-0.488 0.364
-0.487 0.363
-0.486 0.361
-0.485 0.36
-0.484 0.358
-0.483 0.357
-0.482 0.355
-0.481 0.354
-0.48 0.351
-0.479 0.35
-0.478 0.348
-0.477 0.347
-0.476 0.345
-0.475 0.344
-0.474 0.342
-0.473 0.341
-0.472 0.339
-0.471 0.338
-0.47 0.336
-0.469 0.334
-0.468 0.333
-0.467 0.331
-0.466 0.33
-0.465 0.328
-0.464 0.327
-0.463 0.325
-0.462 0.324
-0.461 0.322
-0.46 0.321
-0.459 0.319
-0.458 0.318
-0.457 0.316
-0.456 0.314
-0.455 0.313
-0.454 0.311
-0.453 0.31
-0.452 0.308
-0.451 0.307
-0.45 0.305
-0.449 0.304
-0.448 0.302
-0.447 0.3
-0.446 0.298
-0.445 0.297
-0.444 0.295
-0.443 0.294
-0.442 0.292
-0.441 0.29
-0.44 0.289
-0.439 0.287
-0.438 0.286
-0.437 0.284
-0.436 0.283
-0.435 0.281
-0.434 0.28
-0.433 0.278
-0.432 0.277
-0.431 0.275
-0.43 0.274
-0.429 0.272
-0.428 0.271
-0.427 0.269
-0.426 0.268
-0.425 0.266
-0.424 0.265
-0.423 0.263
-0.422 0.262
-0.421 0.26
-0.42 0.259
-0.419 0.257
-0.418 0.256
-0.417 0.254
-0.416 0.253
-0.415 0.251
-0.414 0.25
-0.413 0.248
-0.412 0.247
-0.411 0.246
-0.41 0.244
-0.409 0.243
-0.408 0.241
-0.407 0.24
-0.406 0.238
-0.405 0.237
-0.404 0.235
-0.403 0.234
-0.402 0.233
-0.401 0.231
-0.4 0.23
-0.399 0.228
-0.398 0.227
-0.397 0.225
-0.396 0.224
-0.395 0.223
-0.394 0.221
-0.393 0.219
-0.392 0.217
-0.391 0.216
-0.39 0.215
-0.389 0.213
-0.388 0.212
-0.387 0.21
-0.386 0.209
-0.385 0.208
-0.384 0.206
-0.383 0.205
-0.382 0.204
-0.381 0.202
-0.38 0.201
-0.379 0.2
-0.378 0.198
-0.377 0.197
-0.376 0.196
-0.375 0.194
-0.374 0.193
-0.373 0.192
-0.372 0.19
-0.371 0.189
-0.37 0.188
-0.369 0.186
-0.368 0.185
-0.367 0.184
-0.366 0.183
-0.365 0.181
-0.364 0.18
-0.363 0.179
-0.362 0.178
-0.361 0.176
-0.36 0.175
-0.359 0.174
-0.358 0.173
-0.357 0.171
-0.356 0.17
-0.355 0.169
-0.354 0.168
-0.353 0.166
-0.352 0.165
-0.351 0.164
-0.35 0.163
-0.349 0.162
-0.348 0.161
-0.347 0.16
-0.346 0.159
-0.345 0.158
-0.344 0.157
-0.343 0.156
-0.342 0.154
-0.341 0.153
-0.34 0.152
-0.339 0.151
-0.338 0.15
-0.337 0.149
-0.336 0.148
-0.335 0.146
-0.334 0.145
-0.333 0.144
-0.332 0.143
-0.331 0.142
-0.33 0.141
-0.329 0.14
-0.328 0.139
-0.327 0.138
-0.326 0.137
-0.325 0.136
-0.324 0.135
-0.323 0.133
-0.322 0.132
-0.321 0.131
-0.32 0.13
-0.319 0.129
-0.318 0.128
-0.317 0.127
-0.316 0.126
-0.315 0.125
-0.314 0.124
-0.313 0.123
-0.312 0.122
-0.311 0.121
-0.31 0.12
-0.309 0.119
-0.308 0.118
-0.307 0.117
-0.306 0.117
-0.305 0.117
-0.304 0.116
-0.303 0.115
-0.302 0.114
-0.301 0.113
-0.3 0.112
-0.299 0.111
-0.298 0.11
-0.297 0.109
-0.296 0.108
-0.295 0.107
-0.294 0.106
-0.293 0.106
-0.292 0.105
-0.291 0.104
-0.29 0.103
-0.289 0.102
-0.288 0.102
-0.287 0.101
-0.286 0.1
-0.285 0.0992
-0.284 0.0985
-0.283 0.0977
-0.282 0.0969
-0.281 0.0961
-0.28 0.0954
-0.279 0.0947
-0.278 0.0939
-0.277 0.0932
-0.276 0.0925
-0.275 0.0918
-0.274 0.0911
-0.273 0.0903
-0.272 0.0897
-0.271 0.089
-0.27 0.0883
-0.269 0.0876
-0.268 0.087
-0.267 0.0862
-0.266 0.0856
-0.265 0.085
-0.264 0.0842
-0.263 0.0836
-0.262 0.083
-0.261 0.0824
-0.26 0.0817
-0.259 0.0811
-0.258 0.0805
-0.257 0.08
-0.256 0.0794
-0.255 0.0787
-0.254 0.0781
-0.253 0.0776
-0.252 0.077
-0.251 0.0765
-0.25 0.0759
-0.249 0.0754
-0.248 0.0747
-0.247 0.0742
-0.246 0.0737
-0.245 0.0732
-0.244 0.0726
-0.243 0.0721
-0.242 0.0716
-0.241 0.0711
-0.24 0.0706
-0.239 0.0701
-0.238 0.0697
-0.237 0.0692
-0.236 0.0687
-0.235 0.0682
-0.234 0.0678
-0.233 0.0673
-0.232 0.0668
-0.231 0.0664
-0.23 0.0659
-0.229 0.0655
-0.228 0.0651
-0.227 0.0646
-0.226 0.0643
-0.225 0.0639
-0.224 0.0635
-0.223 0.063
-0.222 0.0626
-0.221 0.0622
-0.22 0.0619
-0.219 0.0615
-0.218 0.0611
-0.217 0.0607
-0.216 0.0605
-0.215 0.0601
-0.214 0.0597
-0.213 0.0593
-0.212 0.0591
-0.211 0.0587
-0.21 0.0584
-0.209 0.0581
-0.208 0.0578
-0.207 0.0574
-0.206 0.0572
-0.205 0.0568
-0.204 0.0565
-0.203 0.0563
-0.202 0.056
-0.201 0.0557
-0.2 0.0554
-0.199 0.0552
-0.198 0.0549
-0.197 0.0547
-0.196 0.0544
-0.195 0.0542
-0.194 0.0539
-0.193 0.0537
-0.192 0.0535
-0.191 0.0533
-0.19 0.053
-0.189 0.0528
-0.188 0.0527
-0.187 0.0524
-0.186 0.0522
-0.185 0.0521
-0.184 0.0518
-0.183 0.0517
-0.182 0.0515
-0.181 0.0513
-0.18 0.0512
-0.179 0.051
-0.178 0.0508
-0.177 0.0507
-0.176 0.0506
-0.175 0.0504
-0.174 0.0502
-0.173 0.0501
-0.172 0.05
-0.171 0.0499
-0.17 0.0498
-0.169 0.0497
-0.168 0.0496
-0.167 0.0495
-0.166 0.0494
-0.165 0.0493
-0.164 0.0493
-0.163 0.0492
-0.162 0.0491
-0.161 0.049
-0.16 0.0489
-0.159 0.0488
-0.158 0.0487
-0.157 0.0487
-0.156 0.0487
-0.155 0.0487
-0.154 0.0486
-0.153 0.0486
-0.152 0.0485
-0.151 0.0485
-0.15 0.0485
-0.149 0.0486
-0.148 0.0486
-0.147 0.0486
-0.146 0.0485
-0.145 0.0485
-0.144 0.0485
-0.143 0.0486
-0.142 0.0485
-0.141 0.0485
-0.14 0.0486
-0.139 0.0486
-0.138 0.0486
-0.137 0.0486
-0.136 0.0487
-0.135 0.0488
-0.134 0.0488
-0.133 0.0489
-0.132 0.0489
-0.131 0.0491
-0.13 0.0491
-0.129 0.0491
-0.128 0.0493
-0.127 0.0493
-0.126 0.0494
-0.125 0.0495
-0.124 0.0495
-0.123 0.0497
-0.122 0.0498
-0.121 0.0499
-0.12 0.05
-0.119 0.0501
-0.118 0.0502
-0.117 0.0504
-0.116 0.0505
-0.115 0.0506
-0.114 0.0508
-0.113 0.0509
-0.112 0.0511
-0.111 0.0512
-0.11 0.0513
-0.109 0.0516
-0.108 0.0516
-0.107 0.0518
-0.106 0.052
-0.105 0.0522
-0.104 0.0523
-0.103 0.0524
-0.102 0.0527
-0.101 0.0529
-0.1 0.0531
-0.099 0.0532
-0.098 0.0534
-0.097 0.0536
-0.096 0.0539
-0.095 0.054
-0.094 0.0542
-0.093 0.0546
-0.092 0.0548
-0.091 0.0549
-0.09 0.0552
-0.089 0.0554
-0.088 0.0557
-0.087 0.0558
-0.086 0.056
-0.085 0.0563
-0.084 0.0567
-0.083 0.057
-0.082 0.0571
-0.081 0.0573
-0.08 0.0576
-0.079 0.0579
-0.078 0.0582
-0.077 0.0584
-0.076 0.0587
-0.075 0.0589
-0.074 0.0593
-0.073 0.0595
-0.072 0.0597
-0.071 0.0602
-0.07 0.0604
-0.069 0.0607
-0.068 0.061
-0.067 0.0613
-0.066 0.0615
-0.065 0.0619
-0.064 0.0622
-0.063 0.0626
-0.062 0.0628
-0.061 0.0633
-0.06 0.0634
-0.059 0.0639
-0.058 0.0642
-0.057 0.0645
-0.056 0.0649
-0.055 0.0652
-0.054 0.0656
-0.053 0.066
-0.052 0.0664
-0.051 0.0666
-0.05 0.067
-0.049 0.0674
-0.048 0.0677
-0.047 0.0681
-0.046 0.0684
-0.045 0.0689
-0.044 0.0693
-0.043 0.0696
-0.042 0.0701
-0.041 0.0703
-0.04 0.0708
-0.039 0.0712
-0.038 0.0716
-0.037 0.072
-0.036 0.0724
-0.035 0.0728
-0.034 0.0731
-0.033 0.0734
-0.032 0.0739
-0.031 0.0743
-0.03 0.0747
-0.029 0.0752
-0.028 0.0755
-0.027 0.0759
-0.026 0.0764
-0.025 0.0768
-0.024 0.0772
-0.023 0.0777
-0.022 0.0782
-0.021 0.0784
-0.02 0.0789
-0.019 0.0794
-0.018 0.0799
-0.017 0.0804
-0.016 0.0808
-0.015 0.0813
-0.014 0.0817
-0.013 0.0822
-0.012 0.0827
-0.011 0.0832
-0.01 0.0835
-0.009 0.0841
-0.008 0.0846
-0.007 0.085
-0.006 0.0855
-0.005 0.086
-0.004 0.0865
-0.003 0.0869
-0.002 0.0874
-0.001 0.0879
0.0 0.0884
0.001 0.0889
0.002 0.0894
0.003 0.0899
0.004 0.0904
0.005 0.0908
0.006 0.0913
0.007 0.0918
0.008 0.0923
0.009 0.0927
0.01 0.0932
0.011 0.0937
0.012 0.0943
0.013 0.0948
0.014 0.0953
0.015 0.0958
0.016 0.0964
0.017 0.0969
0.018 0.0973
0.019 0.0978
0.02 0.0984
0.021 0.099
0.022 0.0995
0.023 0.1
0.024 0.101
0.025 0.101
0.026 0.102
0.027 0.102
0.028 0.103
0.029 0.103
0.03 0.104
0.031 0.104
0.032 0.105
0.033 0.105
0.034 0.106
0.035 0.107
0.036 0.107
0.037 0.107
0.038 0.108
0.039 0.109
0.04 0.109
0.041 0.11
0.042 0.11
0.043 0.111
0.044 0.111
0.045 0.112
0.046 0.112
0.047 0.113
0.048 0.114
0.049 0.114
0.05 0.115
0.051 0.115
0.052 0.116
0.053 0.116
0.054 0.117
0.055 0.118
0.056 0.118
0.057 0.119
0.058 0.119
0.059 0.12
0.06 0.12
0.061 0.121
0.062 0.122
0.063 0.122
0.064 0.123
0.065 0.123
0.066 0.124
0.067 0.124
0.068 0.125
0.069 0.126
0.07 0.126
0.071 0.127
0.072 0.127
0.073 0.128
0.074 0.128
0.075 0.129
0.076 0.129
0.077 0.13
0.078 0.131
0.079 0.131
0.08 0.132
0.081 0.133
0.082 0.133
0.083 0.134
0.084 0.134
0.085 0.135
0.086 0.135
0.087 0.136
0.088 0.137
0.089 0.137
0.09 0.138
0.091 0.138
0.092 0.139
0.093 0.139
0.094 0.14
0.095 0.141
0.096 0.141
0.097 0.142
0.098 0.142
0.099 0.143
0.1 0.143
0.101 0.144
0.102 0.144
0.103 0.145
0.104 0.146
0.105 0.146
0.106 0.147
0.107 0.147
0.108 0.148
0.109 0.148
0.11 0.149
0.111 0.15
0.112 0.15
0.113 0.151
0.114 0.151
0.115 0.152
0.116 0.152
0.117 0.153
0.118 0.154
0.119 0.154
0.12 0.155
0.121 0.155
0.122 0.156
0.123 0.156
0.124 0.157
0.125 0.157
0.126 0.158
0.127 0.159
0.128 0.159
0.129 0.16
0.13 0.16
0.131 0.161
0.132 0.161
0.133 0.162
0.134 0.162
0.135 0.163
0.136 0.163
0.137 0.164
0.138 0.164
0.139 0.165
0.14 0.166
0.141 0.166
0.142 0.166
0.143 0.167
0.144 0.168
0.145 0.168
0.146 0.168
0.147 0.169
0.148 0.17
0.149 0.17
0.15 0.171
0.151 0.171
0.152 0.172
0.153 0.172
0.154 0.173
0.155 0.173
0.156 0.174
0.157 0.174
0.158 0.175
0.159 0.175
0.16 0.176
0.161 0.176
0.162 0.177
0.163 0.177
0.164 0.177
0.165 0.178
0.166 0.179
0.167 0.179
0.168 0.179
0.169 0.18
0.17 0.18
0.171 0.181
0.172 0.181
0.173 0.182
0.174 0.182
0.175 0.183
0.176 0.183
0.177 0.183
0.178 0.184
0.179 0.184
0.18 0.185
0.181 0.185
0.182 0.186
0.183 0.186
0.184 0.186
0.185 0.187
0.186 0.187
0.187 0.188
0.188 0.188
0.189 0.189
0.19 0.189
0.191 0.189
0.192 0.19
0.193 0.19
0.194 0.191
0.195 0.191
0.196 0.191
0.197 0.192
0.198 0.192
0.199 0.193
0.2 0.193
0.201 0.193
0.202 0.194
0.203 0.194
0.204 0.194
0.205 0.195
0.206 0.195
0.207 0.195
0.208 0.196
0.209 0.196
0.21 0.196
0.211 0.197
0.212 0.197
0.213 0.197
0.214 0.198
0.215 0.198
0.216 0.198
0.217 0.198
0.218 0.199
0.219 0.199
0.22 0.199
0.221 0.2
0.222 0.2
0.223 0.2
0.224 0.201
0.225 0.201
0.226 0.201
0.227 0.201
0.228 0.202
0.229 0.202
0.23 0.202
0.231 0.202
0.232 0.203
0.233 0.203
0.234 0.203
0.235 0.203
0.236 0.204
0.237 0.204
0.238 0.204
0.239 0.204
0.24 0.204
0.241 0.205
0.242 0.205
0.243 0.205
0.244 0.205
0.245 0.205
0.246 0.206
0.247 0.206
0.248 0.206
0.249 0.206
0.25 0.206
0.251 0.206
0.252 0.206
0.253 0.207
0.254 0.207
0.255 0.207
0.256 0.207
0.257 0.207
0.258 0.207
0.259 0.208
0.26 0.208
0.261 0.208
0.262 0.208
0.263 0.208
0.264 0.208
0.265 0.208
0.266 0.208
0.267 0.208
0.268 0.209
0.269 0.209
0.27 0.209
0.271 0.209
0.272 0.209
0.273 0.209
0.274 0.209
0.275 0.209
0.276 0.209
0.277 0.209
0.278 0.209
0.279 0.209
0.28 0.209
0.281 0.209
0.282 0.209
0.283 0.209
0.284 0.209
0.285 0.209
0.286 0.209
0.287 0.209
0.288 0.209
0.289 0.209
0.29 0.209
0.291 0.209
0.292 0.209
0.293 0.209
0.294 0.209
0.295 0.209
0.296 0.209
0.297 0.209
0.298 0.209
0.299 0.209
0.3 0.209
0.301 0.208
0.302 0.208
0.303 0.208
0.304 0.208
0.305 0.208
0.306 0.208
0.307 0.208
0.308 0.208
0.309 0.208
0.31 0.208
0.311 0.207
0.312 0.207
0.313 0.207
0.314 0.207
0.315 0.207
0.316 0.207
0.317 0.207
0.318 0.207
0.319 0.206
0.32 0.206
0.321 0.206
0.322 0.206
0.323 0.206
0.324 0.205
0.325 0.205
0.326 0.205
0.327 0.205
0.328 0.205
0.329 0.204
0.33 0.204
0.331 0.204
0.332 0.204
0.333 0.204
0.334 0.203
0.335 0.203
0.336 0.203
0.337 0.203
0.338 0.203
0.339 0.202
0.34 0.202
0.341 0.202
0.342 0.201
0.343 0.201
0.344 0.201
0.345 0.201
0.346 0.2
0.347 0.2
0.348 0.2
0.349 0.2
0.35 0.199
0.351 0.199
0.352 0.199
0.353 0.198
0.354 0.198
0.355 0.198
0.356 0.197
0.357 0.197
0.358 0.197
0.359 0.196
0.36 0.196
0.361 0.196
0.362 0.195
0.363 0.195
0.364 0.195
0.365 0.194
0.366 0.194
0.367 0.194
0.368 0.193
0.369 0.193
0.37 0.192
0.371 0.192
0.372 0.192
0.373 0.191
0.374 0.191
0.375 0.19
0.376 0.19
0.377 0.19
0.378 0.189
0.379 0.189
0.38 0.188
0.381 0.188
0.382 0.188
0.383 0.187
0.384 0.187
0.385 0.186
0.386 0.186
0.387 0.185
0.388 0.185
0.389 0.184
0.39 0.184
0.391 0.184
0.392 0.183
0.393 0.183
0.394 0.182
0.395 0.182
0.396 0.181
0.397 0.181
0.398 0.18
0.399 0.18
0.4 0.179
0.401 0.179
0.402 0.179
0.403 0.178
0.404 0.178
0.405 0.177
0.406 0.177
0.407 0.176
0.408 0.176
0.409 0.175
0.41 0.175
0.411 0.174
0.412 0.173
0.413 0.173
0.414 0.173
0.415 0.172
0.416 0.171
0.417 0.171
0.418 0.17
0.419 0.17
0.42 0.169
0.421 0.169
0.422 0.168
0.423 0.168
0.424 0.167
0.425 0.167
0.426 0.166
0.427 0.166
0.428 0.165
0.429 0.164
0.43 0.164
0.431 0.163
0.432 0.163
0.433 0.162
0.434 0.162
0.435 0.161
0.436 0.16
0.437 0.16
0.438 0.159
0.439 0.159
0.44 0.158
0.441 0.158
0.442 0.157
0.443 0.156
0.444 0.156
0.445 0.155
0.446 0.155
0.447 0.154
0.448 0.153
0.449 0.153
0.45 0.152
0.451 0.152
0.452 0.151
0.453 0.151
0.454 0.15
0.455 0.149
0.456 0.149
0.457 0.148
0.458 0.147
0.459 0.147
0.46 0.146
0.461 0.146
0.462 0.145
0.463 0.145
0.464 0.144
0.465 0.143
0.466 0.143
0.467 0.142
0.468 0.141
0.469 0.141
0.47 0.14
0.471 0.14
0.472 0.139
0.473 0.138
0.474 0.138
0.475 0.137
0.476 0.137
0.477 0.136
0.478 0.135
0.479 0.135
0.48 0.134
0.481 0.134
0.482 0.133
0.483 0.132
0.484 0.132
0.485 0.131
0.486 0.13
0.487 0.13
0.488 0.129
0.489 0.129
0.49 0.128
0.491 0.127
0.492 0.127
0.493 0.126
0.494 0.125
0.495 0.125
0.496 0.124
0.497 0.124
0.498 0.123
0.499 0.122
0.5 0.122
0.501 0.121
0.502 0.12
0.503 0.12
0.504 0.119
0.505 0.119
0.506 0.118
0.507 0.117
0.508 0.117
0.509 0.116
0.51 0.115
0.511 0.115
0.512 0.114
0.513 0.114
0.514 0.113
0.515 0.112
0.516 0.112
0.517 0.111
0.518 0.111
0.519 0.11
0.52 0.109
0.521 0.109
0.522 0.108
0.523 0.108
0.524 0.107
0.525 0.106
0.526 0.106
0.527 0.105
0.528 0.105
0.529 0.104
0.53 0.103
0.531 0.103
0.532 0.102
0.533 0.102
0.534 0.101
0.535 0.1
0.536 0.0998
0.537 0.099
0.538 0.0985
0.539 0.0979
0.54 0.0974
0.541 0.0968
0.542 0.0961
0.543 0.0956
0.544 0.0949
0.545 0.0944
0.546 0.0939
0.547 0.0932
0.548 0.0927
0.549 0.0921
0.55 0.0914
0.551 0.091
0.552 0.0904
0.553 0.0898
0.554 0.0892
0.555 0.0887
0.556 0.0881
0.557 0.0875
0.558 0.087
0.559 0.0863
0.56 0.0859
0.561 0.0852
0.562 0.0847
0.563 0.0841
0.564 0.0836
0.565 0.083
0.566 0.0825
0.567 0.0818
0.568 0.0814
0.569 0.0808
0.57 0.0803
0.571 0.0796
0.572 0.0792
0.573 0.0786
0.574 0.0781
0.575 0.0777
0.576 0.0771
0.577 0.0765
0.578 0.076
0.579 0.0755
0.58 0.0748
0.581 0.0744
0.582 0.0739
0.583 0.0732
0.584 0.0728
0.585 0.0724
0.586 0.0718
0.587 0.0713
0.588 0.0707
0.589 0.0703
0.59 0.0697
0.591 0.0692
0.592 0.0688
0.593 0.0683
0.594 0.0678
0.595 0.0672
0.596 0.0668
0.597 0.0662
0.598 0.0657
0.599 0.0653
0.6 0.0649
0.601 0.0643
0.602 0.0638
0.603 0.0633
0.604 0.0629
0.605 0.0625
0.606 0.0619
0.607 0.0615
0.608 0.061
0.609 0.0606
0.61 0.06
0.611 0.0596
0.612 0.0592
0.613 0.0587
0.614 0.0583
0.615 0.0579
0.616 0.0573
0.617 0.0569
0.618 0.0564
0.619 0.056
0.62 0.0556
0.621 0.0552
0.622 0.0547
0.623 0.0542
0.624 0.0538
0.625 0.0533
0.626 0.0529
0.627 0.0525
0.628 0.0521
0.629 0.0516
0.63 0.0513
0.631 0.0509
0.632 0.0505
0.633 0.0501
0.634 0.0496
0.635 0.0492
0.636 0.0488
0.637 0.0484
0.638 0.048
0.639 0.0477
0.64 0.0473
0.641 0.0469
0.642 0.0464
0.643 0.046
0.644 0.0456
0.645 0.0453
0.646 0.0449
0.647 0.0445
0.648 0.0441
0.649 0.0437
0.65 0.0434
0.651 0.043
0.652 0.0426
0.653 0.0422
0.654 0.0419
0.655 0.0416
0.656 0.0412
0.657 0.0408
0.658 0.0405
0.659 0.0402
0.66 0.0398
0.661 0.0395
0.662 0.0391
0.663 0.0388
0.664 0.0384
0.665 0.0381
0.666 0.0377
0.667 0.0375
0.668 0.0371
0.669 0.0368
0.67 0.0364
0.671 0.0361
0.672 0.0359
0.673 0.0355
0.674 0.0352
0.675 0.0348
0.676 0.0346
0.677 0.0343
0.678 0.0339
0.679 0.0337
0.68 0.0334
0.681 0.033
0.682 0.0328
0.683 0.0325
0.684 0.0322
0.685 0.0319
0.686 0.0316
0.687 0.0313
0.688 0.0311
0.689 0.0307
0.69 0.0305
0.691 0.0302
0.692 0.03
0.693 0.0297
0.694 0.0295
0.695 0.0291
0.696 0.0288
0.697 0.0286
0.698 0.0283
0.699 0.0281
0.7 0.0279
0.701 0.0276
0.702 0.0274
0.703 0.0271
0.704 0.0269
0.705 0.0266
0.706 0.0264
0.707 0.0262
0.708 0.0259
0.709 0.0257
0.71 0.0254
0.711 0.0252
0.712 0.025
0.713 0.0247
0.714 0.0245
0.715 0.0243
0.716 0.024
0.717 0.0238
0.718 0.0237
0.719 0.0235
0.72 0.0232
0.721 0.023
0.722 0.0228
0.723 0.0226
0.724 0.0224
0.725 0.0222
0.726 0.022
0.727 0.0218
0.728 0.0216
0.729 0.0214
0.73 0.0212
0.731 0.021
0.732 0.0209
0.733 0.0207
0.734 0.0205
0.735 0.0204
0.736 0.0202
0.737 0.0199
0.738 0.0198
0.739 0.0196
0.74 0.0194
0.741 0.0193
0.742 0.0191
0.743 0.019
0.744 0.0188
0.745 0.0186
0.746 0.0185
0.747 0.0183
0.748 0.0182
0.749 0.018
0.75 0.0179
0.751 0.0177
0.752 0.0176
0.753 0.0174
0.754 0.0173
0.755 0.0172
0.756 0.017
0.757 0.0169
0.758 0.0168
0.759 0.0166
0.76 0.0165
0.761 0.0164
0.762 0.0162
0.763 0.0161
0.764 0.016
0.765 0.0159
0.766 0.0158
0.767 0.0156
0.768 0.0155
0.769 0.0154
0.77 0.0153
0.771 0.0152
0.772 0.0151
0.773 0.015
0.774 0.0149
0.775 0.0148
0.776 0.0147
0.777 0.0146
0.778 0.0145
0.779 0.0144
0.78 0.0143
0.781 0.0142
0.782 0.0141
0.783 0.014
0.784 0.0139
0.785 0.0139
0.786 0.0138
0.787 0.0137
0.788 0.0136
0.789 0.0135
0.79 0.0134
0.791 0.0134
0.792 0.0133
0.793 0.0132
0.794 0.0132
0.795 0.0131
0.796 0.013
0.797 0.013
0.798 0.0129
0.799 0.0128
0.8 0.0128
0.801 0.0127
0.802 0.0127
0.803 0.0126
0.804 0.0126
0.805 0.0125
0.806 0.0125
0.807 0.0124
0.808 0.0124
0.809 0.0123
0.81 0.0123
0.811 0.0122
0.812 0.0122
0.813 0.0121
0.814 0.0121
0.815 0.0121
0.816 0.012
0.817 0.012
0.818 0.012
0.819 0.0119
0.82 0.0119
0.821 0.0119
0.822 0.0119
0.823 0.0118
0.824 0.0118
0.825 0.0118
0.826 0.0118
0.827 0.0118
0.828 0.0118
0.829 0.0117
0.83 0.0117
0.831 0.0117
0.832 0.0117
0.833 0.0117
0.834 0.0117
0.835 0.0117
0.836 0.0117
0.837 0.0117
0.838 0.0117
0.839 0.0117
0.84 0.0117
0.841 0.0117
0.842 0.0117
0.843 0.0117
0.844 0.0117
0.845 0.0117
0.846 0.0117
0.847 0.0117
0.848 0.0117
0.849 0.0118
0.85 0.0118
0.851 0.0118
0.852 0.0118
0.853 0.0118
0.854 0.0119
0.855 0.0119
0.856 0.0119
0.857 0.0119
0.858 0.012
0.859 0.012
0.86 0.012
0.861 0.0121
0.862 0.0121
0.863 0.0121
0.864 0.0122
0.865 0.0122
0.866 0.0122
0.867 0.0123
0.868 0.0123
0.869 0.0123
0.87 0.0124
0.871 0.0125
0.872 0.0125
0.873 0.0125
0.874 0.0126
0.875 0.0126
0.876 0.0127
0.877 0.0128
0.878 0.0128
0.879 0.0129
0.88 0.0129
0.881 0.013
0.882 0.013
0.883 0.0131
0.884 0.0132
0.885 0.0132
0.886 0.0133
0.887 0.0134
0.888 0.0134
0.889 0.0135
0.89 0.0136
0.891 0.0136
0.892 0.0137
0.893 0.0138
0.894 0.0139
0.895 0.0139
0.896 0.014
0.897 0.0141
0.898 0.0142
0.899 0.0143
0.9 0.0143
0.901 0.0144
0.902 0.0145
0.903 0.0146
0.904 0.0147
0.905 0.0148
0.906 0.0149
0.907 0.015
0.908 0.0151
0.909 0.0152
0.91 0.0153
0.911 0.0154
0.912 0.0155
0.913 0.0156
0.914 0.0157
0.915 0.0158
0.916 0.0159
0.917 0.016
0.918 0.0161
0.919 0.0162
0.92 0.0163
0.921 0.0164
0.922 0.0165
0.923 0.0167
0.924 0.0168
0.925 0.0169
0.926 0.017
0.927 0.0171
0.928 0.0172
0.929 0.0174
0.93 0.0175
0.931 0.0176
0.932 0.0177
0.933 0.0179
0.934 0.018
0.935 0.0181
0.936 0.0182
0.937 0.0184
0.938 0.0185
0.939 0.0186
0.94 0.0188
0.941 0.0189
0.942 0.019
0.943 0.0192
0.944 0.0193
0.945 0.0195
0.946 0.0196
0.947 0.0198
0.948 0.0199
0.949 0.0201
0.95 0.0202
0.951 0.0204
0.952 0.0205
0.953 0.0207
0.954 0.0208
0.955 0.021
0.956 0.0211
0.957 0.0213
0.958 0.0214
0.959 0.0216
0.96 0.0218
0.961 0.0219
0.962 0.0221
0.963 0.0222
0.964 0.0224
0.965 0.0226
0.966 0.0227
0.967 0.0229
0.968 0.0231
0.969 0.0233
0.97 0.0234
0.971 0.0236
0.972 0.0238
0.973 0.024
0.974 0.0241
0.975 0.0243
0.976 0.0245
0.977 0.0247
0.978 0.0249
0.979 0.025
0.98 0.0252
0.981 0.0254
0.982 0.0256
0.983 0.0258
0.984 0.026
0.985 0.0262
0.986 0.0264
0.987 0.0266
0.988 0.0268
0.989 0.027
0.99 0.0272
0.991 0.0274
0.992 0.0276
0.993 0.0278
0.994 0.028
0.995 0.0282
0.996 0.0283
0.997 0.0285
0.998 0.0288
0.999 0.029
1.0 0.0292
1.001 0.0294
1.002 0.0296
1.003 0.0298
1.004 0.03
1.005 0.0302
1.006 0.0305
1.007 0.0307
1.008 0.0309
1.009 0.0311
1.01 0.0313
1.011 0.0316
1.012 0.0318
1.013 0.032
1.014 0.0322
1.015 0.0324
1.016 0.0327
1.017 0.0329
1.018 0.0331
1.019 0.0333
1.02 0.0337
1.021 0.0339
1.022 0.0341
1.023 0.0343
1.024 0.0346
1.025 0.0347
1.026 0.035
1.027 0.0353
1.028 0.0355
1.029 0.0357
1.03 0.036
1.031 0.0363
1.032 0.0365
1.033 0.0367
1.034 0.037
1.035 0.0372
1.036 0.0376
1.037 0.0377
1.038 0.038
1.039 0.0382
1.04 0.0385
1.041 0.0388
1.042 0.039
1.043 0.0393
1.044 0.0395
1.045 0.0397
1.046 0.04
1.047 0.0403
1.048 0.0406
1.049 0.0408
1.05 0.0411
1.051 0.0413
1.052 0.0416
1.053 0.042
1.054 0.0421
1.055 0.0424
1.056 0.0426
1.057 0.043
1.058 0.0433
1.059 0.0435
1.06 0.0438
1.061 0.044
1.062 0.0443
1.063 0.0447
1.064 0.0449
1.065 0.0451
1.066 0.0454
1.067 0.0457
1.068 0.046
1.069 0.0463
1.07 0.0466
1.071 0.0468
1.072 0.0471
1.073 0.0474
1.074 0.0477
1.075 0.048
1.076 0.0483
1.077 0.0485
1.078 0.0489
1.079 0.0491
1.08 0.0494
1.081 0.0498
1.082 0.05
1.083 0.0503
1.084 0.0506
1.085 0.0509
1.086 0.0512
1.087 0.0515
1.088 0.0518
1.089 0.0521
1.09 0.0524
1.091 0.0527
1.092 0.0529
1.093 0.0533
1.094 0.0536
1.095 0.0539
1.096 0.0541
1.097 0.0546
1.098 0.0547
1.099 0.0551
1.1 0.0553
1.101 0.0557
1.102 0.0559
1.103 0.0563
1.104 0.0567
1.105 0.0569
1.106 0.0573
1.107 0.0575
1.108 0.0578
1.109 0.0582
1.11 0.0585
1.111 0.0587
1.112 0.0591
1.113 0.0594
1.114 0.0597
1.115 0.0601
1.116 0.0604
1.117 0.0606
1.118 0.061
1.119 0.0613
1.12 0.0615
1.121 0.062
1.122 0.0622
1.123 0.0625
1.124 0.063
1.125 0.0632
1.126 0.0635
1.127 0.0639
1.128 0.0642
1.129 0.0644
1.13 0.0647
1.131 0.0651
1.132 0.0654
1.133 0.0657
1.134 0.0661
1.135 0.0664
1.136 0.0666
1.137 0.0671
1.138 0.0673
1.139 0.0676
1.14 0.068
1.141 0.0683
1.142 0.0685
1.143 0.069
1.144 0.0693
1.145 0.0696
1.146 0.07
1.147 0.0702
1.148 0.0706
1.149 0.0709
1.15 0.0712
1.151 0.0715
1.152 0.0718
1.153 0.0721
1.154 0.0725
1.155 0.0728
1.156 0.0732
1.157 0.0735
1.158 0.0737
1.159 0.0742
1.16 0.0745
1.161 0.0747
1.162 0.0751
1.163 0.0754
1.164 0.0757
1.165 0.0761
1.166 0.0764
1.167 0.0767
1.168 0.0771
1.169 0.0774
1.17 0.0777
1.171 0.0779
1.172 0.0783
1.173 0.0787
1.174 0.079
1.175 0.0792
1.176 0.0797
1.177 0.0799
1.178 0.0803
1.179 0.0804
1.18 0.0809
1.181 0.0812
1.182 0.0815
1.183 0.082
1.184 0.0822
1.185 0.0825
1.186 0.0828
1.187 0.0832
1.188 0.0835
1.189 0.0838
1.19 0.0841
1.191 0.0845
1.192 0.0847
1.193 0.085
1.194 0.0854
1.195 0.0857
1.196 0.086
1.197 0.0863
1.198 0.0866
1.199 0.087
1.2 0.0872
1.201 0.0876
1.202 0.0879
1.203 0.0882
1.204 0.0885
1.205 0.0888
1.206 0.0892
1.207 0.0894
1.208 0.0897
1.209 0.0901
1.21 0.0904
1.211 0.0907
1.212 0.0909
1.213 0.0913
1.214 0.0917
1.215 0.092
1.216 0.0922
1.217 0.0924
1.218 0.0928
1.219 0.0931
1.22 0.0934
1.221 0.0937
1.222 0.094
1.223 0.0942
1.224 0.0946
1.225 0.0949
1.226 0.0952
1.227 0.0954
1.228 0.0958
1.229 0.0961
1.23 0.0964
1.231 0.0966
1.232 0.0969
1.233 0.0972
1.234 0.0975
1.235 0.0979
1.236 0.0981
1.237 0.0984
1.238 0.0986
1.239 0.0989
1.24 0.0992
1.241 0.0995
1.242 0.0998
1.243 0.1
1.244 0.1
1.245 0.101
1.246 0.101
1.247 0.101
1.248 0.101
1.249 0.102
1.25 0.102
1.251 0.102
1.252 0.103
1.253 0.103
1.254 0.103
1.255 0.103
1.256 0.104
1.257 0.104
1.258 0.104
1.259 0.104
1.26 0.105
1.261 0.105
1.262 0.105
1.263 0.105
1.264 0.106
1.265 0.106
1.266 0.106
1.267 0.107
1.268 0.107
1.269 0.107
1.27 0.107
1.271 0.107
1.272 0.108
1.273 0.108
1.274 0.108
1.275 0.109
1.276 0.109
1.277 0.109
1.278 0.109
1.279 0.109
1.28 0.11
1.281 0.11
1.282 0.11
1.283 0.11
1.284 0.111
1.285 0.111
1.286 0.111
1.287 0.111
1.288 0.112
1.289 0.112
1.29 0.112
1.291 0.112
1.292 0.112
1.293 0.113
1.294 0.113
1.295 0.113
1.296 0.113
1.297 0.113
1.298 0.114
1.299 0.114
1.3 0.114
1.301 0.114
1.302 0.114
1.303 0.115
1.304 0.115
1.305 0.115
1.306 0.115
1.307 0.115
1.308 0.116
1.309 0.116
1.31 0.116
1.311 0.116
1.312 0.116
1.313 0.116
1.314 0.117
1.315 0.117
1.316 0.117
1.317 0.117
1.318 0.117
1.319 0.118
1.32 0.118
1.321 0.118
1.322 0.118
1.323 0.118
1.324 0.119
1.325 0.119
1.326 0.119
1.327 0.119
1.328 0.119
1.329 0.119
1.33 0.12
1.331 0.12
1.332 0.12
1.333 0.12
1.334 0.12
1.335 0.12
1.336 0.12
1.337 0.121
1.338 0.121
1.339 0.121
1.34 0.121
1.341 0.121
1.342 0.121
1.343 0.121
1.344 0.122
1.345 0.122
1.346 0.122
1.347 0.122
1.348 0.122
1.349 0.122
1.35 0.122
1.351 0.122
1.352 0.123
1.353 0.123
1.354 0.123
1.355 0.123
1.356 0.123
1.357 0.123
1.358 0.123
1.359 0.123
1.36 0.123
1.361 0.124
1.362 0.124
1.363 0.124
1.364 0.124
1.365 0.124
1.366 0.124
1.367 0.124
1.368 0.124
1.369 0.124
1.37 0.124
1.371 0.125
1.372 0.125
1.373 0.125
1.374 0.125
1.375 0.125
1.376 0.125
1.377 0.125
1.378 0.125
1.379 0.125
1.38 0.125
1.381 0.125
1.382 0.126
1.383 0.126
1.384 0.126
1.385 0.126
1.386 0.126
1.387 0.126
1.388 0.126
1.389 0.126
1.39 0.126
1.391 0.126
1.392 0.126
1.393 0.126
1.394 0.126
1.395 0.126
1.396 0.126
1.397 0.126
1.398 0.126
1.399 0.127
1.4 0.127
1.401 0.127
1.402 0.127
1.403 0.127
1.404 0.127
1.405 0.127
1.406 0.127
1.407 0.127
1.408 0.127
1.409 0.127
1.41 0.127
1.411 0.127
1.412 0.127
1.413 0.127
1.414 0.127
1.415 0.127
1.416 0.127
1.417 0.127
1.418 0.127
1.419 0.127
1.42 0.127
1.421 0.127
1.422 0.127
1.423 0.127
1.424 0.127
1.425 0.127
1.426 0.127
1.427 0.127
1.428 0.127
1.429 0.127
1.43 0.127
1.431 0.127
1.432 0.127
1.433 0.127
1.434 0.127
1.435 0.127
1.436 0.127
1.437 0.127
1.438 0.127
1.439 0.127
1.44 0.127
1.441 0.127
1.442 0.127
1.443 0.127
1.444 0.127
1.445 0.127
1.446 0.127
1.447 0.127
1.448 0.127
1.449 0.127
1.45 0.127
1.451 0.127
1.452 0.127
1.453 0.127
1.454 0.127
1.455 0.127
1.456 0.127
1.457 0.127
1.458 0.127
1.459 0.127
1.46 0.127
1.461 0.127
1.462 0.127
1.463 0.127
1.464 0.127
1.465 0.126
1.466 0.126
1.467 0.126
1.468 0.126
1.469 0.126
1.47 0.126
1.471 0.126
1.472 0.126
1.473 0.126
1.474 0.126
1.475 0.126
1.476 0.126
1.477 0.126
1.478 0.126
1.479 0.126
1.48 0.126
1.481 0.126
1.482 0.126
1.483 0.126
1.484 0.126
1.485 0.125
1.486 0.125
1.487 0.125
1.488 0.125
1.489 0.125
1.49 0.125
1.491 0.125
1.492 0.125
1.493 0.125
1.494 0.125
1.495 0.125
1.496 0.125
1.497 0.125
1.498 0.125
1.499 0.125
1.5 0.124
1.501 0.124
1.502 0.124
1.503 0.124
1.504 0.124
1.505 0.124
1.506 0.124
1.507 0.124
1.508 0.124
1.509 0.124
1.51 0.124
1.511 0.124
1.512 0.124
1.513 0.124
1.514 0.123
1.515 0.123
1.516 0.123
1.517 0.123
1.518 0.123
1.519 0.123
1.52 0.123
1.521 0.123
1.522 0.123
1.523 0.123
1.524 0.123
1.525 0.123
1.526 0.123
1.527 0.122
1.528 0.122
1.529 0.122
1.53 0.122
1.531 0.122
1.532 0.122
1.533 0.122
1.534 0.122
1.535 0.122
1.536 0.122
1.537 0.122
1.538 0.121
1.539 0.121
1.54 0.121
1.541 0.121
1.542 0.121
1.543 0.121
1.544 0.121
1.545 0.121
1.546 0.121
1.547 0.121
1.548 0.12
1.549 0.12
1.55 0.12
1.551 0.12
1.552 0.12
1.553 0.12
1.554 0.12
1.555 0.12
1.556 0.12
1.557 0.12
1.558 0.12
1.559 0.119
1.56 0.119
1.561 0.119
1.562 0.119
1.563 0.119
1.564 0.119
1.565 0.119
1.566 0.119
1.567 0.119
1.568 0.118
1.569 0.118
1.57 0.118
1.571 0.118
1.572 0.118
1.573 0.118
1.574 0.118
1.575 0.118
1.576 0.118
1.577 0.118
1.578 0.118
1.579 0.117
1.58 0.117
1.581 0.117
1.582 0.117
1.583 0.117
1.584 0.117
1.585 0.117
1.586 0.117
1.587 0.117
1.588 0.117
1.589 0.116
1.59 0.116
1.591 0.116
1.592 0.116
1.593 0.116
1.594 0.116
1.595 0.116
1.596 0.116
1.597 0.116
1.598 0.115
1.599 0.115
1.6 0.115
1.601 0.115
1.602 0.115
1.603 0.115
1.604 0.115
1.605 0.115
1.606 0.115
1.607 0.115
1.608 0.115
1.609 0.114
1.61 0.114
1.611 0.114
1.612 0.114
1.613 0.114
1.614 0.114
1.615 0.114
1.616 0.114
1.617 0.114
1.618 0.113
1.619 0.113
1.62 0.113
1.621 0.113
1.622 0.113
1.623 0.113
1.624 0.113
1.625 0.113
1.626 0.113
1.627 0.113
1.628 0.112
1.629 0.112
1.63 0.112
1.631 0.112
1.632 0.112
1.633 0.112
1.634 0.112
1.635 0.112
1.636 0.112
1.637 0.112
1.638 0.111
1.639 0.111
1.64 0.111
1.641 0.111
1.642 0.111
1.643 0.111
1.644 0.111
1.645 0.111
1.646 0.111
1.647 0.11
1.648 0.11
1.649 0.11
1.65 0.11
1.651 0.11
1.652 0.11
1.653 0.11
1.654 0.11
1.655 0.11
1.656 0.11
1.657 0.109
1.658 0.109
1.659 0.109
1.66 0.109
1.661 0.109
1.662 0.109
1.663 0.109
1.664 0.109
1.665 0.109
1.666 0.109
1.667 0.108
1.668 0.108
1.669 0.108
1.67 0.108
1.671 0.108
1.672 0.108
1.673 0.108
1.674 0.108
1.675 0.107
1.676 0.107
1.677 0.107
1.678 0.107
1.679 0.107
1.68 0.107
1.681 0.107
1.682 0.107
1.683 0.107
1.684 0.107
1.685 0.106
1.686 0.106
1.687 0.106
1.688 0.106
1.689 0.106
1.69 0.106
1.691 0.106
1.692 0.106
1.693 0.106
1.694 0.106
1.695 0.105
1.696 0.105
1.697 0.105
1.698 0.105
1.699 0.105
1.7 0.105
1.701 0.105
1.702 0.105
1.703 0.105
1.704 0.104
1.705 0.104
1.706 0.104
1.707 0.104
1.708 0.104
1.709 0.104
1.71 0.104
1.711 0.104
1.712 0.104
1.713 0.104
1.714 0.103
1.715 0.103
1.716 0.103
1.717 0.103
1.718 0.103
1.719 0.103
1.72 0.103
1.721 0.103
1.722 0.103
1.723 0.102
1.724 0.102
1.725 0.102
1.726 0.102
1.727 0.102
1.728 0.102
1.729 0.102
1.73 0.102
1.731 0.102
1.732 0.101
1.733 0.101
1.734 0.101
1.735 0.101
1.736 0.101
1.737 0.101
1.738 0.101
1.739 0.101
1.74 0.1
1.741 0.1
1.742 0.1
1.743 0.1
1.744 0.1
1.745 0.0999
1.746 0.0998
1.747 0.0997
1.748 0.0997
1.749 0.0996
1.75 0.0995
1.751 0.0993
1.752 0.0992
1.753 0.099
1.754 0.0989
1.755 0.0988
1.756 0.0988
1.757 0.0986
1.758 0.0985
1.759 0.0984
1.76 0.0982
1.761 0.0981
1.762 0.0979
1.763 0.0978
1.764 0.0978
1.765 0.0977
1.766 0.0975
1.767 0.0974
1.768 0.0973
1.769 0.0972
1.77 0.097
1.771 0.0969
1.772 0.0967
1.773 0.0967
1.774 0.0965
1.775 0.0964
1.776 0.0963
1.777 0.0962
1.778 0.096
1.779 0.0959
1.78 0.0958
1.781 0.0957
1.782 0.0955
1.783 0.0954
1.784 0.0953
1.785 0.0951
1.786 0.095
1.787 0.0949
1.788 0.0947
1.789 0.0946
1.79 0.0945
1.791 0.0944
1.792 0.0942
1.793 0.0941
1.794 0.094
1.795 0.0937
1.796 0.0936
1.797 0.0937
1.798 0.0935
1.799 0.0934
1.8 0.0933
1.801 0.093
1.802 0.0929
1.803 0.0928
1.804 0.0926
1.805 0.0926
1.806 0.0925
1.807 0.0922
1.808 0.0921
1.809 0.0919
1.81 0.0918
1.811 0.0918
1.812 0.0915
1.813 0.0915
1.814 0.0914
1.815 0.0912
1.816 0.0911
1.817 0.0908
1.818 0.0907
1.819 0.0906
1.82 0.0904
1.821 0.0904
1.822 0.0902
1.823 0.0901
1.824 0.0899
1.825 0.0898
1.826 0.0896
1.827 0.0894
1.828 0.0893
1.829 0.0891
1.83 0.0891
1.831 0.0889
1.832 0.0888
1.833 0.0886
1.834 0.0884
1.835 0.0883
1.836 0.0881
1.837 0.0881
1.838 0.0878
1.839 0.0877
1.84 0.0876
1.841 0.0875
1.842 0.0872
1.843 0.0871
1.844 0.087
1.845 0.0869
1.846 0.0866
1.847 0.0865
1.848 0.0863
1.849 0.0861
1.85 0.0861
1.851 0.086
1.852 0.0858
1.853 0.0856
1.854 0.0854
1.855 0.0854
1.856 0.0851
1.857 0.085
1.858 0.0848
1.859 0.0847
1.86 0.0845
1.861 0.0845
1.862 0.0843
1.863 0.084
1.864 0.0839
1.865 0.0838
1.866 0.0836
1.867 0.0834
1.868 0.0833
1.869 0.083
1.87 0.083
1.871 0.0828
1.872 0.0825
1.873 0.0825
1.874 0.0823
1.875 0.0822
1.876 0.082
1.877 0.0819
1.878 0.0816
1.879 0.0815
1.88 0.0814
1.881 0.0811
1.882 0.081
1.883 0.0809
1.884 0.0806
1.885 0.0805
1.886 0.0803
1.887 0.0803
1.888 0.0801
1.889 0.0799
1.89 0.0797
1.891 0.0796
1.892 0.0795
1.893 0.0792
1.894 0.079
1.895 0.079
1.896 0.0787
1.897 0.0786
1.898 0.0784
1.899 0.0782
1.9 0.0781
1.901 0.0778
1.902 0.0777
1.903 0.0776
1.904 0.0773
1.905 0.0773
1.906 0.077
1.907 0.0769
1.908 0.0768
1.909 0.0766
1.91 0.0764
1.911 0.0762
1.912 0.0761
1.913 0.0759
1.914 0.0757
1.915 0.0756
1.916 0.0754
1.917 0.0752
1.918 0.0751
1.919 0.0748
1.92 0.0747
1.921 0.0746
1.922 0.0743
1.923 0.0742
1.924 0.074
1.925 0.0738
1.926 0.0737
1.927 0.0735
1.928 0.0734
1.929 0.0731
1.93 0.073
1.931 0.0728
1.932 0.0726
1.933 0.0725
1.934 0.0722
1.935 0.0721
1.936 0.0719
1.937 0.0717
1.938 0.0717
1.939 0.0714
1.94 0.0712
1.941 0.0711
1.942 0.0709
1.943 0.0707
1.944 0.0706
1.945 0.0704
1.946 0.0702
1.947 0.0701
1.948 0.0698
1.949 0.0697
1.95 0.0696
1.951 0.0694
1.952 0.0692
1.953 0.069
1.954 0.0689
1.955 0.0687
1.956 0.0686
1.957 0.0684
1.958 0.0681
1.959 0.0681
1.96 0.0678
1.961 0.0677
1.962 0.0676
1.963 0.0674
1.964 0.0672
1.965 0.0669
1.966 0.0669
1.967 0.0666
1.968 0.0665
1.969 0.0664
1.97 0.0662
1.971 0.066
1.972 0.0658
1.973 0.0657
1.974 0.0654
1.975 0.0654
1.976 0.0652
1.977 0.065
1.978 0.0649
1.979 0.0647
1.98 0.0645
1.981 0.0644
1.982 0.0641
1.983 0.064
1.984 0.0638
1.985 0.0636
1.986 0.0634
1.987 0.0633
1.988 0.0631
1.989 0.0629
1.99 0.0629
1.991 0.0626
1.992 0.0625
1.993 0.0623
1.994 0.0622
1.995 0.0619
1.996 0.0619
1.997 0.0616
1.998 0.0615
1.999 0.0614
2.0 0.0612
2.001 0.061
2.002 0.0609
2.003 0.0606
2.004 0.0604
2.005 0.0604
2.006 0.0602
2.007 0.06
2.008 0.0599
2.009 0.0597
2.01 0.0596
2.011 0.0594
2.012 0.0592
2.013 0.0592
2.014 0.0589
2.015 0.0588
2.016 0.0586
2.017 0.0585
2.018 0.0584
2.019 0.0581
2.02 0.058
2.021 0.0578
2.022 0.0577
2.023 0.0574
2.024 0.0574
2.025 0.0573
2.026 0.0571
2.027 0.057
2.028 0.0567
2.029 0.0567
2.03 0.0565
2.031 0.0563
2.032 0.0563
2.033 0.0559
2.034 0.0559
2.035 0.0556
2.036 0.0555
2.037 0.0555
2.038 0.0552
2.039 0.0552
2.04 0.055
2.041 0.0549
2.042 0.0548
2.043 0.0545
2.044 0.0545
2.045 0.0543
2.046 0.0541
2.047 0.0539
2.048 0.0539
2.049 0.0537
2.05 0.0535
2.051 0.0534
2.052 0.0532
2.053 0.0532
2.054 0.053
2.055 0.0529
2.056 0.0528
2.057 0.0525
2.058 0.0524
2.059 0.0523
2.06 0.0521
2.061 0.052
2.062 0.052
2.063 0.0517
2.064 0.0517
2.065 0.0515
2.066 0.0514
2.067 0.0513
2.068 0.0512
2.069 0.0509
2.07 0.0508
2.071 0.0507
2.072 0.0507
2.073 0.0504
2.074 0.0504
2.075 0.0503
2.076 0.0501
2.077 0.05
2.078 0.0499
2.079 0.0497
2.08 0.0497
2.081 0.0494
2.082 0.0494
2.083 0.0492
2.084 0.0491
2.085 0.049
2.086 0.0489
2.087 0.0487
2.088 0.0487
2.089 0.0485
2.09 0.0484
2.091 0.0484
2.092 0.0482
2.093 0.0482
2.094 0.0479
2.095 0.0478
2.096 0.0477
2.097 0.0477
2.098 0.0475
2.099 0.0474
2.1 0.0473
2.101 0.0472
2.102 0.0472
2.103 0.0469
2.104 0.0469
2.105 0.0467
2.106 0.0466
2.107 0.0466
2.108 0.0465
2.109 0.0463
2.11 0.0462
2.111 0.0462
2.112 0.046
2.113 0.0459
2.114 0.0459
2.115 0.0458
2.116 0.0456
2.117 0.0456
2.118 0.0454
2.119 0.0454
2.12 0.0453
2.121 0.0451
2.122 0.0451
2.123 0.0451
2.124 0.045
2.125 0.0448
2.126 0.0447
2.127 0.0447
2.128 0.0446
2.129 0.0444
2.13 0.0444
2.131 0.0443
2.132 0.0442
2.133 0.0441
2.134 0.0441
2.135 0.0439
2.136 0.0439
2.137 0.0439
2.138 0.0438
2.139 0.0436
2.14 0.0436
2.141 0.0435
2.142 0.0434
2.143 0.0434
2.144 0.0433
2.145 0.0431
2.146 0.0431
2.147 0.0431
2.148 0.0431
2.149 0.0429
2.15 0.0429
2.151 0.0428
2.152 0.0426
2.153 0.0426
2.154 0.0426
2.155 0.0426
2.156 0.0424
2.157 0.0424
2.158 0.0424
2.159 0.0423
2.16 0.0421
2.161 0.0421
2.162 0.0421
2.163 0.0421
2.164 0.0419
2.165 0.0419
2.166 0.0419
2.167 0.0419
2.168 0.0417
2.169 0.0416
2.17 0.0416
2.171 0.0416
2.172 0.0415
2.173 0.0414
2.174 0.0414
2.175 0.0414
2.176 0.0414
2.177 0.0413
2.178 0.0412
2.179 0.0412
2.18 0.0412
2.181 0.0411
2.182 0.0411
2.183 0.0411
2.184 0.041
2.185 0.041
2.186 0.0409
2.187 0.0409
2.188 0.0409
2.189 0.0409
2.19 0.0408
2.191 0.0407
2.192 0.0407
2.193 0.0407
2.194 0.0407
2.195 0.0407
2.196 0.0405
2.197 0.0405
2.198 0.0405
2.199 0.0405
2.2 0.0405
2.201 0.0405
2.202 0.0404
2.203 0.0404
2.204 0.0403
2.205 0.0403
2.206 0.0403
2.207 0.0403
2.208 0.0403
2.209 0.0403
2.21 0.0403
2.211 0.0403
2.212 0.0402
2.213 0.0402
2.214 0.0401
2.215 0.0401
2.216 0.0401
2.217 0.0401
2.218 0.0401
2.219 0.0402
2.22 0.0402
2.221 0.0401
2.222 0.0401
2.223 0.04
2.224 0.04
2.225 0.04
2.226 0.0401
2.227 0.0401
2.228 0.0401
2.229 0.04
2.23 0.04
2.231 0.04
2.232 0.0401
2.233 0.0401
2.234 0.0401
2.235 0.0401
2.236 0.0401
2.237 0.04
2.238 0.0401
2.239 0.0401
2.24 0.04
2.241 0.04
2.242 0.04
2.243 0.0401
2.244 0.0401
2.245 0.0401
2.246 0.0401
2.247 0.0402
2.248 0.0401
2.249 0.0401
2.25 0.0401
2.251 0.0402
2.252 0.0402
2.253 0.0402
2.254 0.0402
2.255 0.0403
2.256 0.0403
2.257 0.0403
2.258 0.0404
2.259 0.0404
2.26 0.0404
2.261 0.0404
2.262 0.0405
2.263 0.0404
2.264 0.0404
2.265 0.0405
2.266 0.0405
2.267 0.0405
2.268 0.0406
2.269 0.0406
2.27 0.0406
2.271 0.0407
2.272 0.0407
2.273 0.0407
2.274 0.0408
2.275 0.0408
2.276 0.0408
2.277 0.0409
2.278 0.0409
2.279 0.041
2.28 0.041
2.281 0.041
2.282 0.0411
2.283 0.0411
2.284 0.0411
2.285 0.0413
2.286 0.0413
2.287 0.0414
2.288 0.0414
2.289 0.0414
2.29 0.0415
2.291 0.0415
2.292 0.0416
2.293 0.0416
2.294 0.0417
2.295 0.0417
2.296 0.0418
2.297 0.0418
2.298 0.0418
2.299 0.0419
2.3 0.0419
2.301 0.042
2.302 0.042
2.303 0.0421
2.304 0.0421
2.305 0.0422
2.306 0.0423
2.307 0.0424
2.308 0.0424
2.309 0.0424
2.31 0.0427
2.311 0.0427
2.312 0.0427
2.313 0.0428
2.314 0.0428
2.315 0.0428
2.316 0.043
2.317 0.043
2.318 0.043
2.319 0.0431
2.32 0.0431
2.321 0.0433
2.322 0.0434
2.323 0.0434
2.324 0.0434
2.325 0.0436
2.326 0.0437
2.327 0.0438
2.328 0.0438
2.329 0.0438
2.33 0.044
2.331 0.044
2.332 0.044
2.333 0.0442
2.334 0.0442
2.335 0.0445
2.336 0.0445
2.337 0.0445
2.338 0.0446
2.339 0.0446
2.34 0.0448
2.341 0.0448
2.342 0.0448
2.343 0.0449
2.344 0.0451
2.345 0.0453
2.346 0.0453
2.347 0.0454
2.348 0.0455
2.349 0.0455
2.35 0.0456
2.351 0.0456
2.352 0.0458
2.353 0.0459
2.354 0.046
2.355 0.046
2.356 0.0462
2.357 0.0463
2.358 0.0464
2.359 0.0465
2.36 0.0465
2.361 0.0467
2.362 0.0467
2.363 0.0468
2.364 0.0468
2.365 0.0471
2.366 0.0472
2.367 0.0473
2.368 0.0473
2.369 0.0475
2.37 0.0476
2.371 0.0477
2.372 0.0477
2.373 0.0478
2.374 0.0479
2.375 0.048
2.376 0.0482
2.377 0.0484
2.378 0.0484
2.379 0.0485
2.38 0.0486
2.381 0.0488
2.382 0.0488
2.383 0.0489
2.384 0.049
2.385 0.0491
2.386 0.0493
2.387 0.0494
2.388 0.0495
2.389 0.0496
2.39 0.0497
2.391 0.0498
2.392 0.05
2.393 0.0501
2.394 0.0501
2.395 0.0504
2.396 0.0504
2.397 0.0506
2.398 0.0506
2.399 0.0509
2.4 0.0509
2.401 0.051
2.402 0.0511
2.403 0.0513
2.404 0.0513
2.405 0.0514
2.406 0.0515
2.407 0.0518
2.408 0.0518
2.409 0.052
2.41 0.0521
2.411 0.0522
2.412 0.0523
2.413 0.0524
2.414 0.0525
2.415 0.0527
2.416 0.0529
2.417 0.0529
2.418 0.0532
2.419 0.0533
2.42 0.0534
2.421 0.0535
2.422 0.0536
2.423 0.0538
2.424 0.0538
2.425 0.0539
2.426 0.0542
2.427 0.0542
2.428 0.0543
2.429 0.0545
2.43 0.0547
2.431 0.0547
2.432 0.0549
2.433 0.0551
2.434 0.0552
2.435 0.0553
2.436 0.0555
2.437 0.0556
2.438 0.0557
2.439 0.0558
2.44 0.0561
2.441 0.0562
2.442 0.0563
2.443 0.0565
2.444 0.0565
2.445 0.0567
2.446 0.0569
2.447 0.0569
2.448 0.0571
2.449 0.0572
2.45 0.0573
2.451 0.0575
2.452 0.0575
2.453 0.0578
2.454 0.058
2.455 0.058
2.456 0.0583
2.457 0.0585
2.458 0.0585
2.459 0.0587
2.46 0.0588
2.461 0.0589
2.462 0.0591
2.463 0.0592
2.464 0.0593
2.465 0.0594
2.466 0.0596
2.467 0.0598
2.468 0.06
2.469 0.0601
2.47 0.0602
2.471 0.0604
2.472 0.0605
2.473 0.0606
2.474 0.0608
2.475 0.0609
2.476 0.0611
2.477 0.0613
2.478 0.0614
2.479 0.0616
2.48 0.0617
2.481 0.0618
2.482 0.062
2.483 0.0621
2.484 0.0623
2.485 0.0625
2.486 0.0626
2.487 0.0627
2.488 0.0629
2.489 0.0631
2.49 0.0631
2.491 0.0633
2.492 0.0635
2.493 0.0636
2.494 0.0637
2.495 0.0639
2.496 0.064
2.497 0.0643
2.498 0.0644
2.499 0.0645
2.5 0.0647
2.501 0.0648
2.502 0.065
2.503 0.0651
2.504 0.0653
2.505 0.0654
2.506 0.0656
2.507 0.0657
2.508 0.0659
2.509 0.0661
2.51 0.0662
2.511 0.0663
2.512 0.0665
2.513 0.0666
2.514 0.0668
2.515 0.0669
2.516 0.0672
2.517 0.0672
2.518 0.0673
2.519 0.0676
2.52 0.0677
2.521 0.0679
2.522 0.0681
2.523 0.0682
2.524 0.0683
2.525 0.0685
2.526 0.0687
2.527 0.0687
2.528 0.069
2.529 0.0691
2.53 0.0692
2.531 0.0693
2.532 0.0695
2.533 0.0697
2.534 0.0697
2.535 0.07
2.536 0.0701
2.537 0.0702
2.538 0.0704
2.539 0.0706
2.54 0.0707
2.541 0.0709
2.542 0.0711
2.543 0.0712
2.544 0.0714
2.545 0.0715
2.546 0.0717
2.547 0.0717
2.548 0.072
2.549 0.0721
2.55 0.0722
2.551 0.0724
2.552 0.0725
2.553 0.0727
2.554 0.0728
2.555 0.073
2.556 0.0731
2.557 0.0733
2.558 0.0734
2.559 0.0736
2.56 0.0737
2.561 0.0738
2.562 0.0741
2.563 0.0742
2.564 0.0744
2.565 0.0745
2.566 0.0747
2.567 0.0748
2.568 0.075
2.569 0.0751
2.57 0.0753
2.571 0.0754
2.572 0.0756
2.573 0.0757
2.574 0.0757
2.575 0.0759
2.576 0.076
2.577 0.0762
2.578 0.0763
2.579 0.0765
2.58 0.0765
2.581 0.0768
2.582 0.0769
2.583 0.077
2.584 0.0772
2.585 0.0773
2.586 0.0774
2.587 0.0776
2.588 0.0779
2.589 0.0779
2.59 0.0781
2.591 0.0783
2.592 0.0784
2.593 0.0785
2.594 0.0787
2.595 0.0788
2.596 0.0788
2.597 0.079
2.598 0.0791
2.599 0.0793
2.6 0.0794
2.601 0.0795
2.602 0.0797
2.603 0.0799
2.604 0.0799
2.605 0.0802
2.606 0.0803
2.607 0.0803
2.608 0.0805
2.609 0.0807
2.61 0.0808
2.611 0.0809
2.612 0.0809
2.613 0.0812
2.614 0.0814
2.615 0.0814
2.616 0.0816
2.617 0.0818
2.618 0.0818
2.619 0.082
2.62 0.0821
2.621 0.0823
2.622 0.0824
2.623 0.0825
2.624 0.0827
2.625 0.0827
2.626 0.0828
2.627 0.0829
2.628 0.0831
2.629 0.0832
2.63 0.0834
2.631 0.0834
2.632 0.0836
2.633 0.0837
2.634 0.0838
2.635 0.0839
2.636 0.084
2.637 0.0842
2.638 0.0842
2.639 0.0843
2.64 0.0845
2.641 0.0847
2.642 0.0848
2.643 0.0849
2.644 0.0851
2.645 0.0852
2.646 0.0852
2.647 0.0853
2.648 0.0855
2.649 0.0856
2.65 0.0857
2.651 0.0857
2.652 0.086
2.653 0.0861
2.654 0.0862
2.655 0.0862
2.656 0.0862
2.657 0.0865
2.658 0.0865
2.659 0.0867
2.66 0.0867
2.661 0.0869
2.662 0.087
2.663 0.087
2.664 0.087
2.665 0.0872
2.666 0.0873
2.667 0.0875
2.668 0.0875
2.669 0.0876
2.67 0.0877
2.671 0.0878
2.672 0.0878
2.673 0.088
2.674 0.0881
2.675 0.0884
2.676 0.0884
2.677 0.0885
2.678 0.0886
2.679 0.0886
2.68 0.0887
2.681 0.0888
2.682 0.0889
2.683 0.0889
2.684 0.0891
2.685 0.0891
2.686 0.0892
2.687 0.0893
2.688 0.0894
2.689 0.0894
2.69 0.0895
2.691 0.0897
2.692 0.0897
2.693 0.0898
2.694 0.0898
2.695 0.0899
2.696 0.0901
2.697 0.0901
2.698 0.0902
2.699 0.0902
2.7 0.0903
2.701 0.0903
2.702 0.0904
2.703 0.0906
2.704 0.0906
2.705 0.0906
2.706 0.0907
2.707 0.0907
2.708 0.0909
2.709 0.0909
2.71 0.091
2.711 0.0911
2.712 0.091
2.713 0.0911
2.714 0.0913
2.715 0.0914
2.716 0.0914
2.717 0.0916
2.718 0.0915
2.719 0.0915
2.72 0.0916
2.721 0.0918
2.722 0.0918
2.723 0.0919
2.724 0.0918
2.725 0.0919
2.726 0.092
2.727 0.092
2.728 0.0921
2.729 0.0922
2.73 0.0922
2.731 0.0922
2.732 0.0922
2.733 0.0923
2.734 0.0924
2.735 0.0924
2.736 0.0925
2.737 0.0925
2.738 0.0925
2.739 0.0926
2.74 0.0927
2.741 0.0926
2.742 0.0926
2.743 0.0926
2.744 0.0928
2.745 0.0929
2.746 0.0929
2.747 0.0928
2.748 0.0929
2.749 0.0929
2.75 0.0929
2.751 0.093
2.752 0.093
2.753 0.0931
2.754 0.0931
2.755 0.0931
2.756 0.0931
2.757 0.0931
2.758 0.0932
2.759 0.0932
2.76 0.0932
2.761 0.0932
2.762 0.0933
2.763 0.0933
2.764 0.0933
2.765 0.0933
2.766 0.0933
2.767 0.0935
2.768 0.0934
2.769 0.0934
2.77 0.0934
2.771 0.0935
2.772 0.0934
2.773 0.0933
2.774 0.0936
2.775 0.0936
2.776 0.0936
2.777 0.0935
2.778 0.0935
2.779 0.0935
2.78 0.0935
2.781 0.0936
2.782 0.0937
2.783 0.0936
2.784 0.0936
2.785 0.0936
2.786 0.0936
2.787 0.0936
2.788 0.0936
2.789 0.0937
2.79 0.0937
2.791 0.0937
2.792 0.0937
2.793 0.0936
2.794 0.0936
2.795 0.0936
2.796 0.0936
2.797 0.0936
2.798 0.0935
2.799 0.0935
2.8 0.0935
2.801 0.0936
2.802 0.0936
2.803 0.0935
2.804 0.0935
2.805 0.0935
2.806 0.0935
2.807 0.0935
2.808 0.0934
2.809 0.0934
2.81 0.0934
2.811 0.0934
2.812 0.0934
2.813 0.0933
2.814 0.0933
2.815 0.0933
2.816 0.0933
2.817 0.0933
2.818 0.0932
2.819 0.0932
2.82 0.0931
2.821 0.0931
2.822 0.0931
2.823 0.093
2.824 0.093
2.825 0.093
2.826 0.093
2.827 0.0931
2.828 0.093
2.829 0.0929
2.83 0.0929
2.831 0.0929
2.832 0.0928
2.833 0.0927
2.834 0.0927
2.835 0.0928
2.836 0.0928
2.837 0.0927
2.838 0.0926
2.839 0.0926
2.84 0.0926
2.841 0.0926
2.842 0.0926
2.843 0.0924
2.844 0.0924
2.845 0.0924
2.846 0.0924
2.847 0.0924
2.848 0.0922
2.849 0.0922
2.85 0.0922
2.851 0.0922
2.852 0.0922
2.853 0.092
2.854 0.092
2.855 0.092
2.856 0.092
2.857 0.092
2.858 0.0918
2.859 0.0918
2.86 0.0918
2.861 0.0918
2.862 0.0916
2.863 0.0915
2.864 0.0915
2.865 0.0915
2.866 0.0914
2.867 0.0914
2.868 0.0913
2.869 0.0913
2.87 0.0912
2.871 0.0912
2.872 0.0912
2.873 0.0912
2.874 0.091
2.875 0.091
2.876 0.091
2.877 0.0908
2.878 0.0908
2.879 0.0908
2.88 0.0907
2.881 0.0906
2.882 0.0906
2.883 0.0906
2.884 0.0905
2.885 0.0905
2.886 0.0904
2.887 0.0903
2.888 0.0903
2.889 0.0903
2.89 0.0901
2.891 0.09
2.892 0.09
2.893 0.0899
2.894 0.0899
2.895 0.0899
2.896 0.0898
2.897 0.0898
2.898 0.0898
2.899 0.0897
2.9 0.0897
2.901 0.0896
2.902 0.0894
2.903 0.0894
2.904 0.0894
2.905 0.0893
2.906 0.0893
2.907 0.0893
2.908 0.0891
2.909 0.0891
2.91 0.0891
2.911 0.089
2.912 0.0889
2.913 0.0888
2.914 0.0887
2.915 0.0887
2.916 0.0886
2.917 0.0886
2.918 0.0885
2.919 0.0885
2.92 0.0884
2.921 0.0883
2.922 0.0883
2.923 0.0881
2.924 0.0881
2.925 0.0881
2.926 0.088
2.927 0.0879
2.928 0.0878
2.929 0.0878
2.93 0.0878
2.931 0.0878
2.932 0.0878
2.933 0.0876
2.934 0.0875
2.935 0.0874
2.936 0.0874
2.937 0.0874
2.938 0.0873
2.939 0.0873
2.94 0.0871
2.941 0.0871
2.942 0.087
2.943 0.087
2.944 0.087
2.945 0.0869
2.946 0.0868
2.947 0.0866
2.948 0.0866
2.949 0.0866
2.95 0.0866
2.951 0.0866
2.952 0.0865
2.953 0.0865
2.954 0.0863
2.955 0.0863
2.956 0.0862
2.957 0.0862
2.958 0.0861
2.959 0.0861
2.96 0.0859
2.961 0.0859
2.962 0.0858
2.963 0.0858
2.964 0.0858
2.965 0.0857
2.966 0.0857
2.967 0.0856
2.968 0.0856
2.969 0.0855
2.97 0.0855
2.971 0.0853
2.972 0.0853
2.973 0.0853
2.974 0.0853
2.975 0.0852
2.976 0.0852
2.977 0.0851
2.978 0.0851
2.979 0.0848
2.98 0.0848
2.981 0.0848
2.982 0.0848
2.983 0.0848
2.984 0.0847
2.985 0.0847
2.986 0.0846
2.987 0.0846
2.988 0.0845
2.989 0.0844
2.99 0.0844
2.991 0.0844
2.992 0.0843
2.993 0.0843
2.994 0.0842
2.995 0.0842
2.996 0.0841
2.997 0.0842
2.998 0.0841
2.999 0.0841
3.0 0.084
3.001 0.0839
3.002 0.0838
3.003 0.0839
3.004 0.0838
3.005 0.0838
3.006 0.0837
3.007 0.0837
3.008 0.0836
3.009 0.0837
3.01 0.0836
3.011 0.0836
3.012 0.0835
3.013 0.0834
3.014 0.0834
3.015 0.0834
3.016 0.0834
3.017 0.0833
3.018 0.0833
3.019 0.0832
3.02 0.0833
3.021 0.0832
3.022 0.0832
3.023 0.0831
3.024 0.0831
3.025 0.0831
3.026 0.0831
3.027 0.083
3.028 0.0829
3.029 0.0829
3.03 0.0829
3.031 0.0828
3.032 0.0828
3.033 0.0828
3.034 0.0829
3.035 0.0828
3.036 0.0828
3.037 0.0827
3.038 0.0828
3.039 0.0827
3.04 0.0827
3.041 0.0826
3.042 0.0827
3.043 0.0827
3.044 0.0826
3.045 0.0826
3.046 0.0826
3.047 0.0826
3.048 0.0825
3.049 0.0826
3.05 0.0826
3.051 0.0826
3.052 0.0825
3.053 0.0826
3.054 0.0824
3.055 0.0824
3.056 0.0824
3.057 0.0824
3.058 0.0823
3.059 0.0823
3.06 0.0824
3.061 0.0823
3.062 0.0824
3.063 0.0824
3.064 0.0824
3.065 0.0823
3.066 0.0824
3.067 0.0823
3.068 0.0823
3.069 0.0822
3.07 0.0823
3.071 0.0823
3.072 0.0823
3.073 0.0824
3.074 0.0823
3.075 0.0823
3.076 0.0823
3.077 0.0823
3.078 0.0822
3.079 0.0823
3.08 0.0823
3.081 0.0824
3.082 0.0824
3.083 0.0823
3.084 0.0824
3.085 0.0823
3.086 0.0823
3.087 0.0823
3.088 0.0823
3.089 0.0824
3.09 0.0824
3.091 0.0824
3.092 0.0824
3.093 0.0824
3.094 0.0823
3.095 0.0824
3.096 0.0824
3.097 0.0824
3.098 0.0825
3.099 0.0824
3.1 0.0825
3.101 0.0825
3.102 0.0824
3.103 0.0825
3.104 0.0825
3.105 0.0826
3.106 0.0825
3.107 0.0825
3.108 0.0826
3.109 0.0825
3.11 0.0826
3.111 0.0826
3.112 0.0827
3.113 0.0827
3.114 0.0826
3.115 0.0827
3.116 0.0826
3.117 0.0827
3.118 0.0828
3.119 0.0828
3.12 0.0828
3.121 0.0828
3.122 0.0828
3.123 0.0828
3.124 0.0828
3.125 0.0829
3.126 0.083
3.127 0.083
3.128 0.0831
3.129 0.0831
3.13 0.083
3.131 0.0831
3.132 0.0831
3.133 0.0832
3.134 0.0832
3.135 0.0832
3.136 0.0832
3.137 0.0833
3.138 0.0833
3.139 0.0834
3.14 0.0834
3.141 0.0834
3.142 0.0834
3.143 0.0833
3.144 0.0834
3.145 0.0835
3.146 0.0835
3.147 0.0835
3.148 0.0836
3.149 0.0835
3.15 0.0836
3.151 0.0836
3.152 0.0837
3.153 0.0837
3.154 0.0838
3.155 0.0838
3.156 0.0839
3.157 0.0839
3.158 0.0839
3.159 0.084
3.16 0.0841
3.161 0.084
3.162 0.0841
3.163 0.0841
3.164 0.0841
3.165 0.0841
3.166 0.0843
3.167 0.0842
3.168 0.0843
3.169 0.0843
3.17 0.0844
3.171 0.0843
3.172 0.0844
3.173 0.0845
3.174 0.0845
3.175 0.0845
3.176 0.0846
3.177 0.0845
3.178 0.0846
3.179 0.0846
3.18 0.0847
3.181 0.0848
3.182 0.0849
3.183 0.085
3.184 0.0849
3.185 0.085
3.186 0.085
3.187 0.085
3.188 0.085
3.189 0.0851
3.19 0.0852
3.191 0.0852
3.192 0.0852
3.193 0.0853
3.194 0.0852
3.195 0.0853
3.196 0.0853
3.197 0.0854
3.198 0.0853
3.199 0.0854
3.2 0.0855
3.201 0.0856
3.202 0.0855
3.203 0.0856
3.204 0.0857
3.205 0.0857
3.206 0.0857
3.207 0.0857
3.208 0.0858
3.209 0.0858
3.21 0.0859
3.211 0.0859
3.212 0.0859
3.213 0.086
3.214 0.0861
3.215 0.0861
3.216 0.0862
3.217 0.0861
3.218 0.0862
3.219 0.0862
3.22 0.0863
3.221 0.0863
3.222 0.0863
3.223 0.0863
3.224 0.0864
3.225 0.0865
3.226 0.0864
3.227 0.0865
3.228 0.0865
3.229 0.0866
3.23 0.0866
3.231 0.0866
3.232 0.0866
3.233 0.0867
3.234 0.0867
3.235 0.0868
3.236 0.0867
3.237 0.0868
3.238 0.0868
3.239 0.0869
3.24 0.0869
3.241 0.0869
3.242 0.0869
3.243 0.087
3.244 0.087
3.245 0.0871
3.246 0.0871
3.247 0.0871
3.248 0.0871
3.249 0.0872
3.25 0.0872
3.251 0.0872
3.252 0.0872
3.253 0.0873
3.254 0.0873
3.255 0.0874
3.256 0.0874
3.257 0.0874
3.258 0.0874
3.259 0.0875
3.26 0.0875
3.261 0.0876
3.262 0.0874
3.263 0.0875
3.264 0.0875
3.265 0.0876
3.266 0.0876
3.267 0.0876
3.268 0.0876
3.269 0.0877
3.27 0.0877
3.271 0.0877
3.272 0.0878
3.273 0.0876
3.274 0.0877
3.275 0.0877
3.276 0.0878
3.277 0.0878
3.278 0.0878
3.279 0.0878
3.28 0.0879
3.281 0.0878
3.282 0.0877
3.283 0.0878
3.284 0.0878
3.285 0.0879
3.286 0.0879
3.287 0.088
3.288 0.0878
3.289 0.0879
3.29 0.0879
3.291 0.0879
3.292 0.088
3.293 0.0879
3.294 0.0879
3.295 0.0879
3.296 0.088
3.297 0.088
3.298 0.0879
3.299 0.088
3.3 0.0879
3.301 0.088
3.302 0.088
3.303 0.0879
3.304 0.0879
3.305 0.0879
3.306 0.088
3.307 0.088
3.308 0.0879
3.309 0.0879
3.31 0.0879
3.311 0.088
3.312 0.088
3.313 0.0879
3.314 0.0879
3.315 0.0879
3.316 0.0879
3.317 0.0879
3.318 0.0878
3.319 0.0879
3.32 0.0879
3.321 0.0878
3.322 0.0879
3.323 0.0878
3.324 0.0878
3.325 0.0878
3.326 0.0878
3.327 0.0878
3.328 0.0877
3.329 0.0877
3.33 0.0877
3.331 0.0877
3.332 0.0877
3.333 0.0876
3.334 0.0877
3.335 0.0876
3.336 0.0876
3.337 0.0876
3.338 0.0875
3.339 0.0875
3.34 0.0876
3.341 0.0874
3.342 0.0874
3.343 0.0874
3.344 0.0874
3.345 0.0874
3.346 0.0872
3.347 0.0873
3.348 0.0873
3.349 0.0872
3.35 0.0871
3.351 0.0872
3.352 0.0871
3.353 0.0871
3.354 0.0871
3.355 0.087
3.356 0.087
3.357 0.0869
3.358 0.087
3.359 0.0869
3.36 0.0868
3.361 0.0868
3.362 0.0868
3.363 0.0867
3.364 0.0866
3.365 0.0866
3.366 0.0866
3.367 0.0865
3.368 0.0865
3.369 0.0864
3.37 0.0864
3.371 0.0864
3.372 0.0863
3.373 0.0863
3.374 0.0862
3.375 0.0861
3.376 0.0861
3.377 0.0861
3.378 0.086
3.379 0.0859
3.38 0.0858
3.381 0.0858
3.382 0.0859
3.383 0.0857
3.384 0.0857
3.385 0.0856
3.386 0.0856
3.387 0.0854
3.388 0.0855
3.389 0.0854
3.39 0.0853
3.391 0.0852
3.392 0.0852
3.393 0.0851
3.394 0.085
3.395 0.085
3.396 0.085
3.397 0.0849
3.398 0.0848
3.399 0.0847
3.4 0.0847
3.401 0.0845
3.402 0.0845
3.403 0.0844
3.404 0.0844
3.405 0.0843
3.406 0.0843
3.407 0.0842
3.408 0.0841
3.409 0.084
3.41 0.0839
3.411 0.0838
3.412 0.0837
3.413 0.0837
3.414 0.0836
3.415 0.0835
3.416 0.0835
3.417 0.0835
3.418 0.0833
3.419 0.0833
3.42 0.0832
3.421 0.083
3.422 0.083
3.423 0.0829
3.424 0.0828
3.425 0.0827
3.426 0.0827
3.427 0.0826
3.428 0.0824
3.429 0.0824
3.43 0.0823
3.431 0.0822
3.432 0.0821
3.433 0.0821
3.434 0.0819
3.435 0.0818
3.436 0.0818
3.437 0.0816
3.438 0.0816
3.439 0.0815
3.44 0.0814
3.441 0.0813
3.442 0.0812
3.443 0.0811
3.444 0.081
3.445 0.0809
3.446 0.0808
3.447 0.0807
3.448 0.0807
3.449 0.0805
3.45 0.0803
3.451 0.0803
3.452 0.0801
3.453 0.0801
3.454 0.08
3.455 0.0799
3.456 0.0798
3.457 0.0797
3.458 0.0796
3.459 0.0795
3.46 0.0794
3.461 0.0793
3.462 0.0792
3.463 0.079
3.464 0.0789
3.465 0.0788
3.466 0.0787
3.467 0.0786
3.468 0.0785
3.469 0.0785
3.47 0.0783
3.471 0.0782
3.472 0.078
3.473 0.0779
3.474 0.0778
3.475 0.0778
3.476 0.0776
3.477 0.0776
3.478 0.0774
3.479 0.0772
3.48 0.0772
3.481 0.077
3.482 0.0769
3.483 0.0769
3.484 0.0767
3.485 0.0765
3.486 0.0765
3.487 0.0763
3.488 0.0762
3.489 0.0761
3.49 0.0759
3.491 0.0759
3.492 0.0757
3.493 0.0756
3.494 0.0756
3.495 0.0753
3.496 0.0752
3.497 0.0752
3.498 0.075
3.499 0.0749
3.5 0.0747
3.501 0.0746
3.502 0.0745
3.503 0.0744
3.504 0.0742
3.505 0.074
3.506 0.074
3.507 0.0739
3.508 0.0736
3.509 0.0736
3.51 0.0735
3.511 0.0734
3.512 0.0732
3.513 0.073
3.514 0.073
3.515 0.0728
3.516 0.0726
3.517 0.0726
3.518 0.0724
3.519 0.0722
3.52 0.0722
3.521 0.072
3.522 0.0718
3.523 0.0718
3.524 0.0716
3.525 0.0714
3.526 0.0713
3.527 0.0712
3.528 0.0711
3.529 0.0709
3.53 0.0708
3.531 0.0706
3.532 0.0705
3.533 0.0704
3.534 0.0703
3.535 0.0701
3.536 0.07
3.537 0.0698
3.538 0.0697
3.539 0.0695
3.54 0.0694
3.541 0.0693
3.542 0.0691
3.543 0.069
3.544 0.0688
3.545 0.0687
3.546 0.0686
3.547 0.0684
3.548 0.0682
3.549 0.0681
3.55 0.068
3.551 0.0678
3.552 0.0677
3.553 0.0675
3.554 0.0674
3.555 0.0673
3.556 0.0671
3.557 0.067
3.558 0.0668
3.559 0.0666
3.56 0.0665
3.561 0.0664
3.562 0.0662
3.563 0.0661
3.564 0.0659
3.565 0.0658
3.566 0.0657
3.567 0.0654
3.568 0.0654
3.569 0.0651
3.57 0.065
3.571 0.0649
3.572 0.0647
3.573 0.0646
3.574 0.0644
3.575 0.0643
3.576 0.0642
3.577 0.064
3.578 0.0638
3.579 0.0637
3.58 0.0635
3.581 0.0634
3.582 0.0632
3.583 0.0631
3.584 0.063
3.585 0.0628
3.586 0.0626
3.587 0.0625
3.588 0.0623
3.589 0.0621
3.59 0.062
3.591 0.0618
3.592 0.0617
3.593 0.0615
3.594 0.0614
3.595 0.0612
3.596 0.0611
3.597 0.0608
3.598 0.0608
3.599 0.0606
3.6 0.0605
3.601 0.0603
3.602 0.06
3.603 0.06
3.604 0.0598
3.605 0.0597
3.606 0.0595
3.607 0.0593
3.608 0.0592
3.609 0.059
3.61 0.0589
3.611 0.0587
3.612 0.0585
3.613 0.0584
3.614 0.0582
3.615 0.0581
3.616 0.0579
3.617 0.0577
3.618 0.0576
3.619 0.0574
3.62 0.0573
3.621 0.0571
3.622 0.0569
3.623 0.0568
3.624 0.0566
3.625 0.0565
3.626 0.0563
3.627 0.0561
3.628 0.056
3.629 0.0558
3.63 0.0556
3.631 0.0555
3.632 0.0554
3.633 0.0551
3.634 0.055
3.635 0.0548
3.636 0.0546
3.637 0.0546
3.638 0.0543
3.639 0.0541
3.64 0.0541
3.641 0.0538
3.642 0.0537
3.643 0.0536
3.644 0.0534
3.645 0.0532
3.646 0.053
3.647 0.0529
3.648 0.0527
3.649 0.0525
3.65 0.0524
3.651 0.0522
3.652 0.052
3.653 0.052
3.654 0.0517
3.655 0.0515
3.656 0.0514
3.657 0.0512
3.658 0.0511
3.659 0.0509
3.66 0.0508
3.661 0.0506
3.662 0.0504
3.663 0.0502
3.664 0.0501
3.665 0.0499
3.666 0.0497
3.667 0.0496
3.668 0.0494
3.669 0.0493
3.67 0.0491
3.671 0.0489
3.672 0.0488
3.673 0.0486
3.674 0.0484
3.675 0.0482
3.676 0.0481
3.677 0.0479
3.678 0.0478
3.679 0.0475
3.68 0.0474
3.681 0.0473
3.682 0.0471
3.683 0.0469
3.684 0.0468
3.685 0.0465
3.686 0.0465
3.687 0.0462
3.688 0.0461
3.689 0.0459
3.69 0.0457
3.691 0.0456
3.692 0.0455
3.693 0.0452
3.694 0.045
3.695 0.0449
3.696 0.0447
3.697 0.0446
3.698 0.0444
3.699 0.0442
3.7 0.044
3.701 0.044
3.702 0.0437
3.703 0.0436
3.704 0.0434
3.705 0.0432
3.706 0.043
3.707 0.043
3.708 0.0427
3.709 0.0426
3.71 0.0424
3.711 0.0422
3.712 0.042
3.713 0.042
3.714 0.0417
3.715 0.0416
3.716 0.0414
3.717 0.0412
3.718 0.041
3.719 0.0409
3.72 0.0407
3.721 0.0406
3.722 0.0405
3.723 0.0402
3.724 0.0401
3.725 0.0399
3.726 0.0397
3.727 0.0396
3.728 0.0394
3.729 0.0393
3.73 0.0391
3.731 0.0389
3.732 0.0387
3.733 0.0385
3.734 0.0385
3.735 0.0383
3.736 0.0381
3.737 0.0379
3.738 0.0378
3.739 0.0376
3.74 0.0374
3.741 0.0372
3.742 0.0371
3.743 0.037
3.744 0.0368
3.745 0.0366
3.746 0.0364
3.747 0.0363
3.748 0.0361
3.749 0.0359
3.75 0.0358
3.751 0.0357
3.752 0.0355
3.753 0.0353
3.754 0.0351
3.755 0.035
3.756 0.0348
3.757 0.0346
3.758 0.0345
3.759 0.0344
3.76 0.0342
3.761 0.034
3.762 0.0339
3.763 0.0337
3.764 0.0335
3.765 0.0333
3.766 0.0332
3.767 0.0331
3.768 0.0329
3.769 0.0328
3.77 0.0326
3.771 0.0324
3.772 0.0322
3.773 0.0321
3.774 0.0319
3.775 0.0317
3.776 0.0317
3.777 0.0315
3.778 0.0313
3.779 0.0312
3.78 0.031
3.781 0.0308
3.782 0.0307
3.783 0.0305
3.784 0.0303
3.785 0.0303
3.786 0.0301
3.787 0.0299
3.788 0.0297
3.789 0.0296
3.79 0.0294
3.791 0.0293
3.792 0.0291
3.793 0.0289
3.794 0.0289
3.795 0.0287
3.796 0.0285
3.797 0.0284
3.798 0.0282
3.799 0.028
3.8 0.0279
3.801 0.0277
3.802 0.0276
3.803 0.0275
3.804 0.0273
3.805 0.0272
3.806 0.027
3.807 0.0268
3.808 0.0267
3.809 0.0265
3.81 0.0264
3.811 0.0263
3.812 0.0261
3.813 0.026
3.814 0.0258
3.815 0.0256
3.816 0.0255
3.817 0.0254
3.818 0.0253
3.819 0.0251
3.82 0.0249
3.821 0.0248
3.822 0.0246
3.823 0.0245
3.824 0.0244
3.825 0.0242
3.826 0.0241
3.827 0.0239
3.828 0.0238
3.829 0.0236
3.83 0.0235
3.831 0.0234
3.832 0.0232
3.833 0.0231
3.834 0.0229
3.835 0.0228
3.836 0.0226
3.837 0.0226
3.838 0.0224
3.839 0.0223
3.84 0.0221
3.841 0.0219
3.842 0.0218
3.843 0.0217
3.844 0.0216
3.845 0.0214
3.846 0.0213
3.847 0.0211
3.848 0.0211
3.849 0.0209
3.85 0.0208
3.851 0.0206
3.852 0.0205
3.853 0.0204
3.854 0.0203
3.855 0.0201
3.856 0.02
3.857 0.0198
3.858 0.0198
3.859 0.0196
3.86 0.0194
3.861 0.0193
3.862 0.0192
3.863 0.0191
3.864 0.019
3.865 0.0188
3.866 0.0187
3.867 0.0186
3.868 0.0185
3.869 0.0183
3.87 0.0182
3.871 0.018
3.872 0.018
3.873 0.0178
3.874 0.0177
3.875 0.0175
3.876 0.0175
3.877 0.0173
3.878 0.0172
3.879 0.017
3.88 0.017
3.881 0.0169
3.882 0.0167
3.883 0.0167
3.884 0.0165
3.885 0.0164
3.886 0.0162
3.887 0.0162
3.888 0.016
3.889 0.0159
3.89 0.0158
3.891 0.0157
3.892 0.0156
3.893 0.0154
3.894 0.0154
3.895 0.0152
3.896 0.0151
3.897 0.015
3.898 0.0149
3.899 0.0148
3.9 0.0147
3.901 0.0146
3.902 0.0145
3.903 0.0144
3.904 0.0143
3.905 0.0141
3.906 0.014
3.907 0.0139
3.908 0.0138
3.909 0.0137
3.91 0.0136
3.911 0.0135
3.912 0.0134
3.913 0.0133
3.914 0.0132
3.915 0.0131
3.916 0.013
3.917 0.0129
3.918 0.0128
3.919 0.0127
3.92 0.0126
3.921 0.0125
3.922 0.0124
3.923 0.0123
3.924 0.0122
3.925 0.0121
3.926 0.012
3.927 0.0119
3.928 0.0118
3.929 0.0117
3.93 0.0116
3.931 0.0115
3.932 0.0114
3.933 0.0113
3.934 0.0112
3.935 0.0112
3.936 0.0111
3.937 0.011
3.938 0.0109
3.939 0.0108
3.94 0.0107
3.941 0.0106
3.942 0.0105
3.943 0.0104
3.944 0.0104
3.945 0.0103
3.946 0.0102
3.947 0.0101
3.948 0.01
3.949 0.00992
3.95 0.00984
3.951 0.00975
3.952 0.00967
3.953 0.00958
3.954 0.0095
3.955 0.00943
3.956 0.00935
3.957 0.00925
3.958 0.00917
3.959 0.00909
3.96 0.00901
3.961 0.00894
3.962 0.00887
3.963 0.00879
3.964 0.00871
3.965 0.00863
3.966 0.00855
3.967 0.00848
3.968 0.0084
3.969 0.00832
3.97 0.00824
3.971 0.00817
3.972 0.00809
3.973 0.00802
3.974 0.00795
3.975 0.00787
3.976 0.00781
3.977 0.00774
3.978 0.00766
3.979 0.00759
3.98 0.00752
3.981 0.00745
3.982 0.00739
3.983 0.00732
3.984 0.00724
3.985 0.00718
3.986 0.00711
3.987 0.00704
3.988 0.00698
3.989 0.00692
3.99 0.00684
3.991 0.00678
3.992 0.00671
3.993 0.00666
3.994 0.00659
3.995 0.00653
3.996 0.00646
3.997 0.0064
3.998 0.00634
3.999 0.00627
4.0 0.00622
4.001 0.00615
4.002 0.00609
4.003 0.00604
4.004 0.00598
4.005 0.00592
4.006 0.00586
4.007 0.0058
4.008 0.00575
4.009 0.00569
4.01 0.00563
4.011 0.00557
4.012 0.00552
4.013 0.00547
4.014 0.00541
4.015 0.00535
4.016 0.0053
4.017 0.00525
4.018 0.00519
4.019 0.00514
4.02 0.00509
4.021 0.00504
4.022 0.00499
4.023 0.00494
4.024 0.00488
4.025 0.00483
4.026 0.00479
4.027 0.00473
4.028 0.00469
4.029 0.00464
4.03 0.0046
4.031 0.00454
4.032 0.00448
4.033 0.00444
4.034 0.0044
4.035 0.00435
4.036 0.00431
4.037 0.00426
4.038 0.00421
4.039 0.00417
4.04 0.00412
4.041 0.00408
4.042 0.00403
4.043 0.004
4.044 0.00395
4.045 0.00391
4.046 0.00387
4.047 0.00382
4.048 0.00379
4.049 0.00374
4.05 0.0037
4.051 0.00367
4.052 0.00362
4.053 0.00358
4.054 0.00355
4.055 0.0035
4.056 0.00347
4.057 0.00343
4.058 0.00338
4.059 0.00335
4.06 0.00332
4.061 0.00327
4.062 0.00324
4.063 0.0032
4.064 0.00317
4.065 0.00313
4.066 0.00309
4.067 0.00306
4.068 0.00303
4.069 0.00299
4.07 0.00296
4.071 0.00293
4.072 0.0029
4.073 0.00285
4.074 0.00282
4.075 0.00279
4.076 0.00276
4.077 0.00273
4.078 0.0027
4.079 0.00267
4.08 0.00263
4.081 0.0026
4.082 0.00257
4.083 0.00254
4.084 0.00251
4.085 0.00248
4.086 0.00246
4.087 0.00243
4.088 0.0024
4.089 0.00237
4.09 0.00234
4.091 0.00231
4.092 0.00228
4.093 0.00225
4.094 0.00223
4.095 0.00221
4.096 0.00218
4.097 0.00215
4.098 0.00213
4.099 0.0021
4.1 0.00207
4.101 0.00204
4.102 0.00202
4.103 0.002
4.104 0.00198
4.105 0.00195
4.106 0.00192
4.107 0.0019
4.108 0.00188
4.109 0.00186
4.11 0.00183
4.111 0.00181
4.112 0.00179
4.113 0.00177
4.114 0.00174
4.115 0.00172
4.116 0.0017
4.117 0.00168
4.118 0.00165
4.119 0.00164
4.12 0.00162
4.121 0.00159
4.122 0.00158
4.123 0.00156
4.124 0.00153
4.125 0.00152
4.126 0.0015
4.127 0.00148
4.128 0.00146
4.129 0.00144
4.13 0.00142
4.131 0.0014
4.132 0.00138
4.133 0.00137
4.134 0.00135
4.135 0.00133
4.136 0.00131
4.137 0.0013
4.138 0.00128
4.139 0.00126
4.14 0.00125
4.141 0.00123
4.142 0.00121
4.143 0.0012
4.144 0.00118
4.145 0.00117
4.146 0.00115
4.147 0.00113
4.148 0.00112
4.149 0.0011
4.15 0.00109
4.151 0.00108
4.152 0.00106
4.153 0.00105
4.154 0.00103
4.155 0.00102
4.156 0.00101
4.157 0.000992
4.158 0.000978
4.159 0.000965
4.16 0.000952
4.161 0.000938
4.162 0.000926
4.163 0.000913
4.164 0.0009
4.165 0.000888
4.166 0.000876
4.167 0.000864
4.168 0.000851
4.169 0.00084
4.17 0.000828
4.171 0.000817
4.172 0.000806
4.173 0.000793
4.174 0.000783
4.175 0.000772
4.176 0.000761
4.177 0.000751
4.178 0.00074
4.179 0.00073
4.18 0.00072
4.181 0.000709
4.182 0.000699
4.183 0.000689
4.184 0.00068
4.185 0.000669
4.186 0.00066
4.187 0.000651
4.188 0.000641
4.189 0.000632
4.19 0.000623
4.191 0.000614
4.192 0.000605
4.193 0.000596
4.194 0.000587
4.195 0.000578
4.196 0.000571
4.197 0.000562
4.198 0.000555
4.199 0.000546
4.2 0.000538
4.201 0.00053
4.202 0.000522
4.203 0.000515
4.204 0.000507
4.205 0.000499
4.206 0.000493
4.207 0.000485
4.208 0.000477
4.209 0.00047
4.21 0.000464
4.211 0.000457
4.212 0.000449
4.213 0.000443
4.214 0.000436
4.215 0.00043
4.216 0.000424
4.217 0.000417
4.218 0.000411
4.219 0.000405
4.22 0.000399
4.221 0.000393
4.222 0.000387
4.223 0.000381
4.224 0.000375
4.225 0.000369
4.226 0.000363
4.227 0.000357
4.228 0.000353
4.229 0.000347
4.23 0.000341
4.231 0.000337
4.232 0.000331
4.233 0.000326
4.234 0.00032
4.235 0.000316
4.236 0.000311
4.237 0.000306
4.238 0.000301
4.239 0.000297
4.24 0.000292
4.241 0.000288
4.242 0.000283
4.243 0.000279
4.244 0.000274
4.245 0.00027
4.246 0.000266
4.247 0.000261
4.248 0.000257
4.249 0.000253
4.25 0.000249
4.251 0.000245
4.252 0.000241
4.253 0.000237
4.254 0.000233
4.255 0.00023
4.256 0.000226
4.257 0.000223
4.258 0.000218
4.259 0.000215
4.26 0.000212
4.261 0.000208
4.262 0.000205
4.263 0.000202
4.264 0.000199
4.265 0.000195
4.266 0.000192
4.267 0.000189
4.268 0.000186
4.269 0.000183
4.27 0.00018
4.271 0.000177
4.272 0.000174
4.273 0.000171
4.274 0.000168
4.275 0.000165
4.276 0.000162
4.277 0.000159
4.278 0.000157
4.279 0.000155
4.28 0.000152
4.281 0.000149
4.282 0.000147
4.283 0.000144
4.284 0.000142
4.285 0.00014
4.286 0.000137
4.287 0.000135
4.288 0.000133
4.289 0.00013
4.29 0.000128
4.291 0.000126
4.292 0.000124
4.293 0.000122
4.294 0.00012
4.295 0.000118
4.296 0.000116
4.297 0.000114
4.298 0.000112
4.299 0.00011
4.3 0.000108
4.301 0.000106
4.302 0.000104
4.303 0.000102
4.304 0.000101
4.305 9.9e-05
4.306 9.73e-05
4.307 9.55e-05
4.308 9.39e-05
4.309 9.23e-05
4.31 9.07e-05
4.311 8.9e-05
4.312 8.76e-05
4.313 8.59e-05
4.314 8.45e-05
4.315 8.3e-05
4.316 8.15e-05
4.317 8e-05
4.318 7.87e-05
4.319 7.73e-05
4.32 7.59e-05
4.321 7.46e-05
4.322 7.33e-05
4.323 7.19e-05
4.324 7.06e-05
4.325 6.94e-05
4.326 6.81e-05
4.327 6.7e-05
4.328 6.58e-05
4.329 6.45e-05
4.33 6.34e-05
4.331 6.22e-05
4.332 6.12e-05
4.333 6e-05
4.334 5.9e-05
4.335 5.79e-05
4.336 5.68e-05
4.337 5.58e-05
4.338 5.48e-05
4.339 5.38e-05
4.34 5.28e-05
4.341 5.19e-05
4.342 5.09e-05
4.343 4.99e-05
4.344 4.9e-05
4.345 4.82e-05
4.346 4.73e-05
4.347 4.64e-05
4.348 4.55e-05
4.349 4.47e-05
4.35 4.38e-05
4.351 4.31e-05
4.352 4.23e-05
4.353 4.15e-05
4.354 4.07e-05
4.355 4e-05
4.356 3.92e-05
4.357 3.85e-05
4.358 3.78e-05
4.359 3.7e-05
4.36 3.63e-05
4.361 3.57e-05
4.362 3.5e-05
4.363 3.44e-05
4.364 3.37e-05
4.365 3.31e-05
4.366 3.24e-05
4.367 3.19e-05
4.368 3.12e-05
4.369 3.06e-05
4.37 3.01e-05
4.371 2.95e-05
4.372 2.89e-05
4.373 2.84e-05
4.374 2.78e-05
4.375 2.73e-05
4.376 2.67e-05
4.377 2.63e-05
4.378 2.57e-05
4.379 2.53e-05
4.38 2.48e-05
4.381 2.42e-05
4.382 2.38e-05
4.383 2.33e-05
4.384 2.29e-05
4.385 2.25e-05
4.386 2.2e-05
4.387 2.16e-05
4.388 2.12e-05
4.389 2.07e-05
4.39 2.04e-05
4.391 2e-05
4.392 1.95e-05
4.393 1.92e-05
4.394 1.88e-05
4.395 1.85e-05
4.396 1.81e-05
4.397 1.77e-05
4.398 1.73e-05
4.399 1.7e-05
4.4 1.67e-05
4.401 1.63e-05
4.402 1.6e-05
4.403 1.57e-05
4.404 1.54e-05
4.405 1.51e-05
4.406 1.48e-05
4.407 1.45e-05
4.408 1.42e-05
4.409 1.39e-05
4.41 1.37e-05
4.411 1.34e-05
4.412 1.31e-05
4.413 1.28e-05
4.414 1.26e-05
4.415 1.23e-05
4.416 1.21e-05
4.417 1.18e-05
4.418 1.16e-05
4.419 1.14e-05
4.42 1.11e-05
4.421 1.09e-05
4.422 1.07e-05
4.423 1.05e-05
4.424 1.03e-05
4.425 1.01e-05
4.426 9.85e-06
4.427 9.64e-06
4.428 9.45e-06
4.429 9.25e-06
4.43 9.06e-06
4.431 8.87e-06
4.432 8.69e-06
4.433 8.51e-06
4.434 8.33e-06
4.435 8.17e-06
4.436 7.99e-06
4.437 7.84e-06
4.438 7.67e-06
4.439 7.51e-06
4.44 7.35e-06
4.441 7.2e-06
4.442 7.05e-06
4.443 6.9e-06
4.444 6.76e-06
4.445 6.61e-06
4.446 6.48e-06
4.447 6.34e-06
4.448 6.21e-06
4.449 6.07e-06
4.45 5.95e-06
4.451 5.82e-06
4.452 5.71e-06
4.453 5.59e-06
4.454 5.46e-06
4.455 5.35e-06
4.456 5.23e-06
4.457 5.12e-06
4.458 5.01e-06
4.459 4.91e-06
4.46 4.79e-06
4.461 4.69e-06
4.462 4.61e-06
4.463 4.51e-06
4.464 4.4e-06
4.465 4.31e-06
4.466 4.22e-06
4.467 4.12e-06
4.468 4.03e-06
4.469 3.95e-06
4.47 3.87e-06
4.471 3.78e-06
4.472 3.7e-06
4.473 3.62e-06
4.474 3.55e-06
4.475 3.46e-06
4.476 3.39e-06
4.477 3.31e-06
4.478 3.24e-06
4.479 3.17e-06
4.48 3.11e-06
4.481 3.03e-06
4.482 2.97e-06
4.483 2.9e-06
4.484 2.84e-06
4.485 2.78e-06
4.486 2.71e-06
4.487 2.65e-06
4.488 2.6e-06
4.489 2.54e-06
4.49 2.49e-06
4.491 2.43e-06
4.492 2.38e-06
4.493 2.33e-06
4.494 2.27e-06
4.495 2.23e-06
4.496 2.17e-06
4.497 2.13e-06
4.498 2.08e-06
4.499 2.03e-06
4.5 1.98e-06
4.501 1.94e-06
4.502 1.89e-06
4.503 1.86e-06
4.504 1.82e-06
4.505 1.77e-06
4.506 1.73e-06
4.507 1.7e-06
4.508 1.66e-06
4.509 1.61e-06
4.51 1.58e-06
4.511 1.54e-06
4.512 1.51e-06
4.513 1.48e-06
4.514 1.44e-06
4.515 1.41e-06
4.516 1.38e-06
4.517 1.35e-06
4.518 1.32e-06
4.519 1.28e-06
4.52 1.26e-06
4.521 1.23e-06
4.522 1.2e-06
4.523 1.17e-06
4.524 1.14e-06
4.525 1.12e-06
4.526 1.09e-06
4.527 1.07e-06
4.528 1.04e-06
